            FP1            FP2             F7             F3             FZ             F4             F8             T3             C3             CZ             C4             T4             T5             P3             PZ             P4             T6             O1             O2             128
      -7.083592      -7.790371      -5.744213      -3.789986       2.398482      10.138437       2.264216      -4.501358       2.985456       6.025949       2.862473      -4.999069       2.305471       1.303589      10.279060       7.343555      -3.876945       7.138370       5.647606
      -0.298514       0.332786      -2.593345      -0.796597       5.112725       4.323610       7.431880       5.489225       1.580566       8.570209       7.392427      -5.015905       6.082438       8.538202      17.300709      12.961493       2.937392      11.156040      13.499701
       6.318609       8.078426      -2.625993      -0.403677       2.950130       0.348468       3.367323       8.223022      -0.065959       8.943175       7.911628       4.022566       6.561144      11.747142      21.354326      13.943172       4.243999      11.565035      13.187687
       6.706364       7.809552      -1.048771       1.619104       2.418821       4.116387       3.254140       6.613657       2.425705       9.005602       7.330187       8.755912       8.116864      13.921364      21.470068      11.536389       0.395660      15.798815      14.356372
       0.610043       2.624388       2.246588       8.138155       2.197382       5.329710       2.824167      -0.265837       3.788640       5.577500       6.099737      -0.139248       5.028788       9.244141      16.550371       5.871477      -5.203775      10.622225       9.420008
      -1.477250      -2.390855       5.200777      10.933623       2.716782       8.564974       3.305754      -8.129273       7.134599       5.112191       7.323958      -4.309390       5.003619       7.779020      15.586576       1.335039      -9.552097       5.618874       3.558163
      -0.106927       0.320235       7.914970      11.989693       5.464386      13.351752       9.511684       3.230915      14.336706      11.407535      12.016685     -10.256975       9.754450      11.373218      20.620745       2.126100      -8.808579       5.190694       1.254740
      15.279904      18.618889      17.664362      21.626402      12.423470      19.739155      16.916847      16.619492      24.902475      19.247225      14.591289      -6.718255      11.176348      14.160152      23.600630       4.861681      -3.315179       2.539807      -0.663022
      37.475883      37.225952      23.534119      29.106747      16.994247      19.874029      19.075119       8.473256      28.281624      19.140766       8.503353       0.057149       5.464859      11.031348      20.143494       3.107326      -2.307681       0.062581      -2.452099
      60.016933      62.989761      27.932920      35.844814      23.920458      23.856661      24.972319       6.010677      27.651867      20.736229       3.030623       0.342712       0.925438       8.340175      19.142776       0.036036       0.663385      -0.484512      -1.005922
      96.630104     100.628349      35.384144      44.699093      33.845219      32.697464      36.679966       8.406654      24.819002      22.268990      -2.555638       7.110580      -3.009638       4.015368      17.087358      -4.361042       1.705565      -3.548517      -2.353649
     140.549149     141.963120      46.656841      51.853306      38.891289      36.541214      47.302666       6.914321      22.659180      17.645554      -8.824388      12.875777      -2.350465       2.000027      16.905340      -0.926610       3.152383      -2.681541       0.902666
     178.113602     175.931335      55.999882      57.119339      39.424618      35.553471      50.480427       9.953625      23.978737      11.431808     -12.421512      14.529113       4.990989       6.209604      21.133759       9.095572       8.168022       4.900761       9.871775
     209.254196     202.300659      58.615185      60.855503      38.149345      34.664394      50.774052      15.595067      24.096329       3.374085     -14.932775      10.933401       9.965955      10.527022      22.409023      13.725676      10.614899       7.471569      14.806075
     243.770920     230.107056      66.531456      70.442062      43.193623      40.274330      55.444645      15.516631      26.265739       5.895601      -5.682213      11.472293      11.146049      16.725832      27.727522      19.098404      17.079174       9.674929      18.869326
     275.742859     258.230469      73.244225      73.720490      53.759956      53.780727      63.157967      16.953981      29.469303      17.604422      13.248433      13.616526      10.893695      22.401691      35.417942      24.072817      20.986725      10.535335      20.650005
     293.119202     280.738373      77.514275      80.254417      64.296982      66.152016      72.003342      17.292500      34.498161      27.653280      30.970116      11.644445      10.021310      23.105284      38.584694      28.372923      19.073854       6.026089      18.864233
     308.052795     299.247620      84.036201      90.676102      75.023491      74.631577      77.324677      18.621315      44.314571      36.630436      42.052891      13.176158      13.632921      22.858490      37.201118      31.285738      17.745558       6.217189      18.327267
     317.813507     306.582336      84.797203      90.646538      80.931732      77.597313      78.749825      24.784649      51.134605      39.515423      42.000092      20.547907      15.496472      22.113850      30.794672      25.871628      15.669215       6.042057      13.168296
     313.971375     304.115265      85.246590      89.482872      80.699669      73.593765      77.674942      25.279491      50.988342      35.306362      38.473934      20.911152      11.015730      17.953270      21.254328      18.122423      14.192695       1.305763       5.859952
     309.421417     304.535858      86.858887      94.622971      82.039970      66.211647      84.435814      30.332668      49.905788      32.861099      40.696136      18.972683      13.242694      18.591742      18.477951      17.990395      18.520424       4.360271       8.754554
     307.566956     304.649139     102.828201     106.401794      97.259834      83.914803     101.909554      52.411732      66.867126      49.147881      60.182514      38.845444      29.679882      34.590969      36.606350      36.868614      44.105358      21.684216      27.730762
     293.952911     295.238495     118.081635     125.256447     110.332420     111.775024     110.693848      64.444595      82.421501      63.732300      75.966125      63.003578      40.095699      45.263744      49.178783      50.229477      62.402599      31.647085      38.000645
     263.345215     265.860199     102.159004     118.950859     100.790634     112.226357     100.444283      48.311752      70.699699      55.885357      67.399803      57.671970      34.077774      34.332886      36.914223      39.014042      50.700249      22.038162      25.640232
     238.071259     231.737671      85.586182      91.383224      86.071327      92.866974      82.882797      39.615784      54.273342      45.486156      55.745014      53.219837      27.037891      23.737038      24.774019      29.928488      42.745735      18.218897      17.451225
     215.027588     209.658508      82.792931      74.446579      75.824371      76.553200      70.098740      36.121040      49.197620      41.496555      45.534023      50.080456      26.642025      23.007637      24.245832      31.148499      46.674187      22.594393      19.343456
     186.326767     181.966248      74.038971      67.016220      61.207333      64.524773      58.570976      27.557676      41.931030      34.444374      31.716507      38.166508      21.108177      18.337118      23.937315      29.240585      42.281723      17.288191      14.941853
     154.421326     150.409698      60.001175      60.165783      47.315269      52.512009      45.146847      26.166782      26.659225      27.025940      32.100658      26.817204      13.256464       8.275234      18.156389      26.395437      34.046021       6.114316       7.848562
     122.976608     129.232391      47.676239      48.092381      36.664322      48.941895      43.892479      21.923645      15.455125      22.593683      39.208656      27.819103       6.761100       1.025492      12.375363      24.304783      30.214073      -3.799697       3.352039
     101.800674     113.637115      43.306423      38.222549      30.295824      46.068123      40.403770      19.593166      16.208351      23.466057      43.293850      30.033297       4.350802       2.414593      14.938643      24.719093      26.951675      -8.630694       1.730729
      87.287155      89.866798      41.807449      32.851158      25.028614      44.823204      32.192295      26.025318      23.276209      29.868164      46.178921      20.166748       6.087056       5.779814      20.596615      23.066881      19.783268     -11.839467      -0.838669
      69.696800      62.610519      40.152687      29.145243      16.767447      29.688511      26.058300      23.000027      28.915884      31.317137      40.528229      16.298365      10.501681      11.176798      24.019201      15.226962       8.878904      -7.230384      -6.094384
      51.742565      49.027714      37.399811      28.558287      11.788555      16.831175      19.369724      17.608379      32.293217      29.405382      34.239071      11.270645      14.062153      18.403023      26.273323       9.681459       4.913869       4.585234      -5.804782
      31.598890      37.742817      26.860456      22.874393       9.293471      19.155310      15.703102      19.820030      32.701637      26.527334      29.430807       3.458028      12.738628      18.888628      23.037043       4.541317       3.898221       6.270576      -6.838982
      17.271515      23.919401      17.798941      11.466902       7.208938      16.148800      13.385879      23.906116      31.268276      26.068798      26.041552      13.888950      10.581604      16.297583      21.327883       2.873913       1.567544       3.245991      -9.460392
       7.025958      12.258171      16.312534       8.382497       8.410894       9.779446       8.922212      22.045872      30.049274      29.899048      27.701618      24.156168       6.632302      12.009186      21.523085       4.350924       0.953635      -2.960607     -11.031397
      -4.764838       0.301977      14.366297       8.355453       8.267235       9.972118       7.178890      11.787191      25.176144      28.242414      25.168234      21.767319      -6.072192       1.788710      16.157831       5.125547       6.858278     -16.137512     -13.933113
     -11.800925      -6.373245       9.826286       9.731252       6.470927       0.782164       5.821303       7.036387      19.624065      22.423479      16.166807      15.899543     -13.370853      -4.447945      11.827531       6.374903      11.860940     -21.609419     -12.086135
     -18.258579     -18.506098       3.549747      10.912266       5.677783      -9.758343      -0.566542      -2.677460      14.968416      18.484697       9.617974       5.211146     -11.251649      -6.942771       8.318248       3.940435       9.553221     -20.674927     -11.615195
     -24.390245     -30.801006      -2.395540       8.184275       1.961008     -10.350773      -6.224791     -12.284203       6.284320      12.279303       8.674049      -8.762822     -11.784100      -8.946602       3.622212       0.949554       5.677015     -18.854446     -17.033186
     -29.811850     -31.940891      -2.859286      -2.049164      -2.809088      -5.527627      -9.090523       0.261216       1.789453       8.727439       9.726669      -6.710602      -9.582240      -3.886201       5.707358       2.505487       2.056647     -12.362487     -22.425751
     -28.541912     -28.894094       0.044871      -4.394854      -3.581764      -3.225109     -10.225003       9.339728       8.646391      12.959468      15.199001       4.839041      -0.689085       8.699744      18.637186      11.970130       3.282273       1.065731     -15.555283
     -32.272308     -34.959442       1.167493       3.449615      -1.491659      -1.045337      -9.158601       1.571620      15.481668      19.764563      19.559378      10.154123       3.107138      15.852321      28.089090      20.363987      10.632996       8.228891      -0.246764
     -37.518906     -42.665104      -1.499702       6.328869      -0.139874      -2.713106     -10.388322      -5.158351      15.104643      22.295763      18.676535       4.670781      -1.295339       9.915917      24.430380      16.544626      13.001019      -1.515135       3.102127
     -40.918179     -46.567314      -3.289813       4.994310      -3.475364      -7.105787     -16.444933      -4.391131      12.461755      20.926758      13.677017      -6.667665      -5.842942       2.923891      17.567886       5.141995       6.079520     -16.940241      -4.104221
     -44.699608     -52.019730      -1.653946       1.425800      -8.876719      -9.220138     -20.452511      -0.758313      12.481020      19.013687       9.375338     -16.133308      -6.658877       0.791005      14.623153      -4.165523      -1.326546     -22.235525     -10.849824
     -41.977623     -52.927052       1.291108      -0.504865     -13.019461     -10.799351     -18.794422       4.308475      12.527802      16.174816       7.202447     -22.111149      -2.983128       3.652694      15.409339      -7.436382      -4.095002     -14.488904     -10.868951
     -38.966152     -50.846031       3.293437       0.840155     -16.504332     -13.960550     -14.751577       6.357726      13.821511      14.163590       6.237293     -12.931758       1.031856       7.882353      18.498028      -6.439695      -4.938429      -3.934527      -6.596176
     -41.575119     -52.747459       4.038367       1.759965     -17.423588     -11.563251     -13.726836       7.657699      14.136596      10.201728       0.814459      -0.584448       2.937923       8.747191      15.114345      -8.566480      -4.074941       4.282918      -4.033124
     -46.568802     -55.407898      -0.858449      -4.402905     -20.521696     -10.646059     -17.169741      -2.245644       9.776419       3.723906      -2.788696      -1.980630       1.479782       5.116111       5.682461      -9.636051      -1.774954       9.416935      -2.797970
     -55.793346     -56.090866      -9.582702     -10.946194     -26.281612     -12.359439     -21.664869     -17.419193       3.262382      -1.790928       0.833440      -2.395705       1.585406      -1.310274      -4.518172      -6.713582       0.891720      10.831553      -4.176289
     -59.702229     -56.079437     -14.377993     -14.764544     -26.779518     -14.792057     -18.138330     -14.620291      -1.283207      -6.407545       5.312206      -4.354815       3.810815      -6.462461     -13.678900      -6.199496       1.484818       6.515355      -5.599858
     -63.180454     -65.320908     -14.056372     -16.405008     -26.199871     -17.552835     -20.272001     -12.781890      -5.197298     -11.503657       7.147668     -11.698707       2.773806     -10.466030     -18.596397      -4.941854       3.366685       2.134975      -3.520328
     -63.572353     -66.431862     -10.483853     -12.261297     -24.935238     -19.947294     -25.213106      -7.652349      -6.290548     -14.297147       8.629726      -7.253162       2.511429      -7.714367     -15.371468       1.707366      10.088963       5.858747       3.307428
     -62.728477     -62.570263      -9.383523     -10.456655     -22.861753     -16.876369     -25.629877      -0.047115      -6.331141     -16.009960       5.999056      -6.723505       0.298743      -5.455356     -13.047566       1.556089       8.811165       6.638468       5.597608
     -60.934334     -68.548256     -10.015889     -17.646481     -20.200342     -10.548816     -29.305258      -6.711520      -6.723092     -15.005445       1.489708     -22.400238      -5.064160      -5.219253     -11.508241      -3.666062       2.977991       1.960476       5.884717
     -55.734951     -72.022034      -9.610455     -13.745964     -12.869161      -9.105123     -28.053629     -14.031655      -3.041086      -7.138397      -1.779010     -25.867434      -7.234859      -0.975693      -4.319557      -6.268064      -3.077488       1.354983       8.656104
     -54.238674     -67.503601      -6.665323      -6.444226      -7.395707     -16.172058     -29.397274      -7.711510       2.519937       2.998281      -6.994237     -18.389984      -5.478087       3.795441       4.267055      -9.303270      -8.438938       2.025238       7.430840
     -52.920677     -58.335506      -5.012301      -4.618981      -2.555603     -18.493824     -31.438114       2.176688       9.716066      14.026464      -9.258731     -17.898718      -2.062599       7.180238      11.400599     -10.504312     -12.161025       4.702753       6.053213
     -45.375534     -49.927616      -2.435495       8.385573       9.265776      -7.523872     -26.520166       3.148896      18.088558      27.509022      -2.458495     -15.698575      -0.743592      10.566308      18.007090      -7.071230     -11.432402       6.916371       5.084976
     -44.923328     -49.343719      -6.167976       7.328066      16.023865       6.021592     -22.976078     -12.237729      21.723392      34.096069       3.767687     -17.275234       0.676314      14.010944      21.424500      -2.644813      -7.753106       9.427365       4.061839
     -48.746616     -47.813278     -10.985209       4.321203      17.325472      11.883668     -16.744482      -9.946981      20.588085      34.145981       7.757962      -5.467481       2.354061      16.426222      22.042927       4.229652      -1.311095      11.967547       7.258864
     -46.439735     -46.535507      -9.648534       9.377606      15.814474       8.347247     -14.850788     -11.180015      19.342827      29.329952      11.162597      -2.868690       5.371924      18.152977      21.985441      13.728914       9.771064      14.533782      14.281725
     -44.189999     -50.160000      -8.230000       8.160000       9.840000       5.330000     -11.730000      -8.270000      18.270000      21.870001      13.880000      -2.380000       2.510000      14.620000      17.459999      17.850000      15.830000       9.400000      14.300000
     -42.629688     -49.678303      -2.360860      12.793929       7.737597       4.055557      -3.833978       5.107972      20.443218      16.276516      15.337796      -4.661490       1.304835      12.043640       9.364006      14.809998       9.734095       2.591482       8.554944
     -43.632416     -53.939152      -0.890456       9.723553       0.270803      -5.697699     -10.035751      11.985301      17.241688       3.684476       7.283068     -13.735050       4.174571       8.366033      -2.260828       5.983107       0.407867      -2.464558       2.140622
     -49.242352     -62.855354      -4.137387       1.163668     -10.264416     -15.275975     -21.601772       7.312737       9.592483      -8.159781      -0.132790     -10.556387       3.048560       3.475124      -8.757723      -0.580253      -4.071644      -5.911002       1.443799
     -53.493404     -65.662071      -4.120292      -4.738143     -14.856857     -16.221472     -24.872618       3.900491       0.994932     -13.017676      -2.371599      -3.764035      -1.725950      -2.788064     -11.734794      -4.932775      -4.090197     -10.119053      -0.417168
     -53.749176     -66.587608      -4.139134     -11.701272     -18.570728     -23.751453     -25.937126       1.580868      -7.385030     -20.037901      -8.653046      -4.413684      -4.650503      -8.284341     -15.476396     -11.390353      -5.672789     -15.706883      -5.716991
     -56.394543     -68.525131      -3.140619     -17.683876     -20.492723     -28.594288     -25.838598       4.540712      -9.217126     -22.166758     -11.653551      -6.194607      -6.520866      -7.809200     -12.614892     -10.876704      -1.509901     -16.863319      -3.947530
     -61.175343     -66.790634      -5.628409     -21.474880     -22.937838     -27.497559     -25.531416       4.692535      -9.389971     -22.024240     -10.497854      -3.404414      -9.957890      -7.047019      -7.511815      -7.202376       5.573764     -17.137350      -1.060252
     -57.520721     -56.988144      -9.370845     -19.447126     -23.930254     -24.342165     -17.141544      -3.801846      -9.448786     -20.974377      -9.260371      -1.869640      -7.300128      -4.219660      -2.396356      -4.726918       7.047413      -9.613736       3.459336
     -55.133392     -53.595848     -12.855794     -16.447071     -25.037216     -19.855370      -7.997133      -5.747196      -9.714164     -18.215883     -11.071855       2.255354      -1.960366      -0.657328       0.979632      -7.285937       2.417193      -6.358650       2.960489
     -56.228523     -60.341942     -15.249224     -21.601658     -26.764233     -21.593544      -8.660373       0.406170     -13.472024     -17.270380     -17.762093       6.154229      -3.603969      -5.760257      -5.026560     -18.619781      -5.842906     -18.877279     -10.043438
     -58.686069     -64.219185     -17.699194     -26.119043     -27.724323     -23.587053     -13.172804      -8.372022     -19.325367     -20.766678     -23.566486       4.831234      -6.119577     -13.680176     -16.400225     -27.496990     -11.366164     -22.429386     -17.199858
     -59.096931     -64.321190     -18.220530     -21.377577     -21.059933     -14.611045     -11.325001      -7.864273     -16.125269     -15.420106     -14.595000      13.223890      -1.344825     -12.588450     -19.392519     -21.380194      -5.850250     -15.831969     -12.743316
     -59.231102     -64.138329     -16.405254     -19.996578     -14.994432      -7.849129      -9.104336       2.201835     -13.307478      -8.284117      -3.288225       6.907726       0.648686     -14.042314     -21.944252     -13.371946      -3.824150     -16.992764     -12.556149
     -59.886444     -59.000011     -14.346533     -27.578447     -17.780470     -11.874045     -11.245502       3.917371     -16.396868     -13.195345      -6.743334      -8.237163      -2.215480     -20.160402     -30.056471     -13.158204      -8.234645     -19.340004     -17.970743
     -61.419838     -58.149418     -13.770987     -29.837275     -23.850439     -19.701960     -16.767920      -4.778725     -18.270357     -20.236345     -10.752067     -17.438587      -7.746902     -23.777069     -34.633507     -10.532969      -9.296240     -19.025822     -18.288679
     -61.137325     -60.635765     -17.060835     -26.470127     -27.521637     -24.172153     -15.881674     -10.937225     -20.628889     -21.036949      -7.206765     -11.400182     -15.040372     -25.535969     -34.424500      -6.503957      -7.031256     -17.378279     -14.970075
     -57.201588     -53.789875     -19.220249     -22.723116     -21.534113     -17.728216      -6.113878      -8.607825     -14.358544     -10.328354       3.557321      11.660096     -16.332764     -18.803709     -26.332205      -2.460257      -1.131782     -10.380668      -7.876957
     -55.073517     -44.537968     -18.548889     -17.321932      -9.214896       1.530399       3.661754      -3.264446      -4.767386       5.898613      15.311163      13.835752     -10.695309      -7.618493     -13.903903       0.853628       1.543034      -0.982918       2.292552
     -52.140484     -41.726608     -18.839413     -15.716055      -0.704313      11.885419       9.145820      -8.919481      -3.055827      11.784976      16.848755      11.279755      -6.186534      -1.924867      -7.495913       0.449444      -0.189712       4.358727       7.476747
     -44.541824     -37.765633     -16.908298     -14.744189       1.926750      12.075382       7.709206     -16.740170      -5.959928       8.102639      11.863698      14.385933      -9.508185      -5.743342      -9.963502      -2.639579      -0.483227       0.342225       1.611249
     -39.639942     -39.318829     -12.947308      -9.726849       1.358483       8.224952       3.632195     -15.939919     -11.052705       3.934746       7.899722       8.943601     -14.218812     -12.065390     -14.129574      -7.285639      -1.960475      -7.489998      -3.968758
     -40.290218     -42.100765     -10.885523      -7.909450      -2.327456      -0.704757       0.613493     -14.121478     -18.079861      -3.376510      -4.872432      -6.700613     -17.091106     -16.712261     -18.492270     -18.500721      -5.002993     -13.227258      -9.011967
     -47.683186     -41.793346     -14.953938     -11.765005      -8.065166      -9.152163      -5.504528     -13.888473     -20.254612      -9.529484     -21.977192     -11.917256     -16.219852     -16.591908     -19.242329     -28.507044      -8.145568     -14.059890     -14.523685
     -47.342110     -37.881477     -15.793919     -10.434547      -7.898859      -8.206976      -6.151014     -13.652690     -15.381562      -4.860096     -22.775406       4.567540     -12.999276     -10.789036     -13.020434     -26.657368     -10.566645      -6.316540     -11.552539
     -44.118744     -40.815105     -14.240807     -10.141073      -5.780256      -2.564871      -6.496299     -23.794153     -13.111320      -0.522612     -10.899791       4.104641     -13.990384      -5.316399      -6.426000     -17.558100     -10.896917      -0.491860      -4.306845
     -46.408657     -45.349503     -15.415750      -9.880251      -7.852228      -1.138710      -6.191539     -33.110180     -13.116322      -2.459062      -4.284134      -0.496614     -16.777849      -3.695477      -2.818555      -8.019414      -9.929451      -1.522622      -0.427944
     -48.440197     -42.656425     -18.550705     -14.012052     -11.482858      -7.036981      -5.309625     -26.647030     -14.411354      -5.158153      -6.391045       2.208340     -17.465170      -5.759623      -4.328923      -3.660318      -5.891572      -5.562897      -1.363691
     -52.196499     -43.965897     -21.986742     -27.753149     -20.180742     -13.774895      -9.266712     -14.478760     -23.378332     -12.805431     -10.556114      -3.393707     -19.830761     -13.946714     -13.213538      -6.763219      -6.230700     -11.846975      -5.982268
     -53.377735     -44.364464     -24.326803     -31.468220     -23.339903     -12.460137      -7.480214      -8.352443     -25.643724     -14.070676      -4.775878      -5.411049     -19.805811     -13.606013     -13.221466      -3.129849      -4.819238     -11.033748      -3.933632
     -53.907310     -44.320423     -22.052847     -27.462349     -18.704014      -6.072379      -5.009236     -18.933863     -21.042732      -7.193930       3.712118      -7.008943     -17.111654      -6.584827      -5.860857       2.710528      -5.887704      -9.793734      -2.785490
     -47.632977     -38.946289     -15.250543     -22.639847     -13.696800      -0.637490      -0.815278     -17.063354     -15.495276       0.132017       7.214241       0.239655     -15.537327      -2.229209       2.457491       5.026776      -8.472066     -11.612661      -4.859609
     -34.948704     -26.392574     -11.602719     -19.419506     -12.628619       0.479104       3.981572     -11.784405     -10.232827       1.295347       4.042622       3.321446     -13.297046       2.139146       6.914371       1.941790     -12.554607      -7.777205      -5.216995
     -15.370694      -9.121150      -8.474234     -17.434906     -14.050491      -2.302297       5.246367     -15.089535      -9.426269      -4.968970      -2.847243      -4.370915      -7.562517       3.657396       3.125151      -5.453355     -16.256819      -5.150956      -8.947090
      13.873818      16.184816       1.074712      -8.517964      -8.990452      -0.902208      10.498728      -7.737507      -9.360023      -7.839140      -8.079386      -3.789123      -2.078473       2.447124      -2.618551     -10.827604     -11.973263      -7.287369      -9.713713
      47.808865      45.611851      10.850468       1.516489       1.774814       5.336956      15.061034       0.341458      -9.644741      -6.422919     -17.729504      -7.401043      -0.567884      -2.038548      -7.807409     -16.728445     -10.057437      -9.593968     -10.841630
      86.614319      77.031036      18.863071       9.661280      10.591433       9.265477      14.530002       3.451262      -6.612113      -6.084758     -24.671303     -20.089878       2.101733      -2.040982     -10.664789     -18.410515     -12.390556      -7.197089     -13.447707
     131.437836     115.479141      29.953802      19.746950      19.502605      15.698087      17.461370       9.482011       2.087486      -4.889647     -18.779325      -7.347239       5.808927       1.254445     -13.269829     -16.287172     -12.100279      -6.822910     -14.959664
     175.197861     150.826660      42.462860      31.453333      30.007874      26.206503      26.493155      12.940217      10.374036       1.066573      -5.675603       3.450035       9.405292       3.521999     -12.797818     -11.285872      -8.540466      -2.802377     -10.793007
     211.463913     180.622360      50.567352      44.078590      41.412426      38.908031      39.030380      15.631678      18.936964      12.077199       9.607120      13.031202      13.291044       8.261916      -4.831468       1.520183       4.426957       4.076960      -0.213668
     240.899399     206.518280      58.213600      57.945534      53.431107      51.484623      47.502510      24.777864      28.213884      19.812855      23.606674      21.170378      17.479691      11.933424       1.230323      14.353516      19.197165       2.214378       6.758573
     258.130981     229.335083      62.107288      66.320061      58.628605      54.833584      51.584381      27.556900      27.417984      17.419060      26.762386      16.064594      17.953321      10.089087      -1.751198      17.366875      21.820683       2.410750       9.089106
     260.290192     244.875122      58.398056      66.267937      57.476555      56.213329      52.806225      20.609573      16.297775      11.244033      22.842136       7.061031      16.583265       5.002284     -11.317039       9.049045      11.258477       8.009887       4.577434
     248.215729     245.190857      55.217846      57.873653      52.930679      57.147247      49.155720      12.379127       7.037300       2.700713      16.436348       7.372763      11.482303      -4.398049     -24.243645      -3.518282      -0.382114       2.003052      -4.946919
     234.836288     236.218063      54.816250      52.349941      53.038292      54.187790      47.988220       6.385112       8.046915      -0.967624      12.340150      13.856729       6.128814     -10.651107     -31.573465      -8.960253      -2.305954      -9.753103     -14.476636
     216.793900     214.961365      55.311642      53.146683      57.034161      52.010777      47.306744       4.643179      15.650695       3.389985      13.775057      20.161797       7.309749      -3.879043     -24.408661      -4.455921       2.305032     -10.892538     -16.365700
     197.241104     186.124115      51.429588      54.146904      53.579842      45.270237      43.677563      13.018654      16.602293       3.736618       9.278303      15.431356       9.446343       4.626640     -14.012912      -1.055272       4.353919      -6.018178     -11.392294
     168.379349     154.523804      39.977211      50.872723      42.746979      35.517353      34.684761      18.436041      12.591364      -0.458496       2.327094      -1.891001       9.870059       7.872990      -9.120497      -2.319200       3.408026      -1.741964      -4.648007
     126.347420     119.447166      25.209240      33.040379      27.517908      21.553205      21.335745      15.472407       6.438894      -9.223889      -8.974401      -9.793044       8.581387       7.243487      -7.883886      -0.994668       5.867219      -0.288010       0.372005
      91.919449      89.423660      15.935496      14.025639      13.250768       7.302866      17.348989       5.749074      -4.180319     -20.816410     -18.936600       3.519109       3.244503       2.438294      -9.813188       2.046004       6.581801       0.289564       3.026535
      64.507439      66.656090       7.067836       2.572288       6.222308       5.136533      15.326801      -8.445683     -11.952663     -23.454493     -13.322113       3.291610       0.107068      -0.496110     -11.919390      -0.017374       0.022980       1.711178      -0.610619
      42.043133      48.533012      -2.025907      -3.253031       4.282754       6.305542       5.907131      -9.989601     -13.029326     -18.727472      -5.053323      -2.195921       0.065724      -2.960058     -14.122469      -2.448754      -2.353255       0.863969      -5.837310
      19.985550      30.151800      -9.738259      -8.534920       0.971217      -1.422315      -1.812973      -1.807793     -12.933694     -16.352571      -4.299139       2.559238      -2.532026      -7.091692     -18.964861      -2.402475       0.242321      -2.868404      -9.285822
      -4.376324       4.431563     -14.496655     -18.178709      -4.764406      -6.103912      -8.251470      -5.759575     -12.416706     -15.872496      -1.691324      -7.003331      -1.279209      -7.161911     -20.264072      -3.354986      -0.466126      -1.545734     -14.082554
     -20.636505     -15.791266     -14.888872     -16.781677      -9.275355      -8.478464     -12.125008       0.105301      -9.751148     -15.344385      -1.594904      -6.444988       1.960954      -7.496823     -20.672375      -8.671921      -2.594541      -7.715325     -22.648008
     -31.253452     -26.988859     -12.671990     -12.520923      -9.239645      -7.866980     -12.031746       0.201913      -6.083317     -12.963037      -2.827369      -8.441010       2.254692     -11.103454     -23.416355     -14.527481      -8.422448     -17.761560     -27.230595
     -42.964024     -37.214592     -15.563464     -18.892401     -11.178945      -6.482829     -14.065619      -8.527946      -6.776284     -13.853583      -7.613578     -13.410718       1.713667     -14.641496     -25.382149     -15.283461     -10.763318     -19.163040     -18.945688
     -56.863312     -47.943691     -22.381128     -23.593851     -17.958462     -16.416281     -22.003637      -1.180210      -8.778067     -17.321930     -15.333182      -6.507058       3.106221     -15.849177     -26.985931     -12.866945      -7.665073     -16.539181      -7.425566
     -62.760281     -57.940800     -23.145119     -18.113708     -22.892042     -26.079782     -26.082972       5.452168      -7.234299     -17.415607     -19.581083     -13.020504       4.892733     -14.740400     -26.739777     -10.971171      -3.647374     -12.632888       0.025877
     -60.214859     -62.888855     -22.701042     -19.585302     -25.142139     -31.994434     -28.771025      -8.802783      -8.571227     -16.104860     -23.746532     -15.793479      -0.847842     -21.188337     -28.720928     -15.234204      -7.248422     -18.236061      -2.319376
     -64.273125     -62.195206     -27.659885     -23.412188     -27.137053     -34.799656     -32.999474     -23.483438     -14.321226     -15.229794     -29.506536     -16.483997     -13.604822     -32.621929     -33.498962     -24.491707     -16.391029     -32.204674     -12.659789
     -69.732544     -64.492546     -31.218046     -25.580214     -28.500683     -36.608276     -32.234772     -20.899591     -18.189651     -11.661839     -34.562599     -18.922972     -21.498688     -40.674850     -35.522026     -31.065119     -25.076488     -40.440987     -24.729776
     -77.646477     -70.617279     -33.463585     -31.590622     -30.310696     -35.509739     -32.685532     -10.613476     -19.422060      -9.062800     -30.574356     -17.297281     -21.878555     -42.304352     -31.710674     -28.081200     -25.713310     -39.262085     -32.329887
     -83.689461     -70.971451     -33.738125     -34.409348     -29.837154     -28.579247     -29.206022      -8.841441     -18.409889      -8.097058     -21.166313     -13.015466     -13.596964     -33.700104     -21.707047     -22.250675     -18.882507     -27.983324     -38.240017
     -84.980003     -69.519997     -32.459999     -31.270000     -28.809999     -24.270000     -23.330000      -7.700000     -17.840000      -8.040000     -14.610000      -3.700000      -5.810000     -22.889999     -10.030000     -17.730000     -12.470000     -15.050000     -40.990002
     -83.526123     -66.673187     -30.904661     -34.596802     -30.530151     -24.660482     -20.950132      -9.261466     -19.579859      -9.258763      -9.349918     -10.580952      -0.680645     -13.568492      -1.799454      -7.679520      -7.527190       2.468055     -22.295607
     -76.701851     -62.363667     -32.471706     -36.170391     -32.281586     -24.365576     -17.010717     -11.543137     -23.459551     -14.518009      -7.972202      -7.217024      -5.580736     -15.941784      -5.506584      -0.097861      -7.899514       5.100311      -1.249946
     -64.212280     -53.043777     -28.829952     -28.482386     -28.390673     -20.383144     -12.271661     -17.843925     -20.859011     -18.151590      -8.859290      -7.239683     -15.856237     -19.620926     -12.043521      -0.916956     -11.752090      -4.430235       7.660428
     -41.468151     -35.699043     -22.127295     -14.983164     -16.972153     -12.847390     -11.127415     -26.863703      -9.498009     -12.194984      -7.398059     -16.482674     -16.204208     -13.597528      -9.289666      -2.968605     -11.908922      -5.339121      16.109688
      -4.225617      -8.148558      -9.795663       2.552549      -0.128441      -1.936002      -8.228884     -20.811018       2.867009      -0.177880      -1.687694     -14.272734      -9.803181      -5.034391      -1.574975      -0.870524     -10.890431       0.708972      23.027868
      41.493084      28.495752       3.987103      16.414303      10.354911       5.954025      -0.093649      -9.109756       7.168837       3.593660       1.553605     -14.345112      -6.409237      -1.929163      -0.716956       3.325185      -9.326170       2.974312      25.313354
      92.547935      74.100357      17.776495      23.398855      15.583945      11.142119      15.532027      -3.553243       5.022513      -0.895703      -2.207613      -7.508327      -7.492385      -3.482133      -7.562287       4.669719      -7.323246      -7.861358      17.289059
     141.051910     119.416710      27.577738      31.314157      23.649899      21.595125      28.757710      -1.942502       3.476236      -3.061943      -2.626098       3.536627      -7.078815      -2.344232     -11.475113       6.212238      -4.004383     -16.318081       5.502965
     170.792328     149.029999      31.130114      34.293697      29.469105      24.863075      29.703554      -1.172960       1.005148      -3.701927      -3.988442      -5.359233      -1.581733       1.332245     -10.790524       9.287903       1.417207      -8.704289       3.690980
     187.023880     163.753845      35.837418      38.115368      35.361954      25.148260      26.617014       2.581794       2.542603      -1.216279      -2.134071      -8.458781       4.259110       5.230208      -8.829401      12.979453       7.008870       0.349027       5.691589
     195.073044     178.473099      37.807724      39.454430      38.812870      27.121666      23.255892       8.501427       1.713994      -1.147541       0.845364      -3.823025       5.158372       2.558501     -13.544458       7.756163       2.431157       3.066699      -1.610849
     189.471130     182.236099      32.466316      31.619112      31.324284      20.116953      20.446321       2.612211      -6.283305     -11.961793      -3.722856      -6.226254       1.586461      -4.701421     -24.054573      -3.582023      -6.965760       5.035710      -7.558889
     184.612183     183.218597      32.853836      26.658182      23.684488      15.831314      24.935940      -4.177882     -14.304238     -25.368452      -6.543046      -8.274914       2.311429      -5.418847     -30.085936      -6.772182      -7.810435       9.767774      -3.317760
     182.394867     181.088638      34.463051      21.877003      21.945099      19.404491      28.268297     -10.691031     -16.523560     -31.023056      -3.606357       2.367620       5.828127      -0.544659     -29.927618      -2.473293      -3.002081      13.941042       2.247476
     175.618912     174.183609      27.902884      18.455700      24.903082      25.038486      28.791252      -2.927405     -10.259066     -25.940441       3.042737      11.274427       8.999663       3.627713     -24.587774       3.999479       2.716266      13.195111       7.020534
     178.931213     174.481750      37.531971      26.727488      31.635416      31.299719      29.866732      16.560791      -0.693428     -18.416145       4.377810       2.739191      12.401207       4.729566     -21.090652      -0.501093      -0.787193       7.687973       3.787511
     179.010727     173.548737      43.797089      31.935894      33.089149      29.327387      22.815828      18.174681       3.403689     -14.157377       0.820158      -6.332638      12.701237       2.165921     -20.354626     -10.152283      -8.587900       0.053490      -2.383363
     175.619507     172.832794      42.814323      30.492983      31.851540      24.848480      23.479856      15.327996       5.088354     -13.076112      -1.929286      -0.119223       9.013243      -4.015194     -20.695145     -14.776922      -8.480130      -7.866993      -7.129190
     177.873917     175.090469      46.454166      30.495138      29.474297      20.076813      27.049763      11.432558       3.550420     -17.817041      -8.402796      -3.322577       2.794541     -12.681811     -26.944639     -22.214100     -12.832905     -17.931423     -17.934546
     182.967041     179.804276      47.873352      35.201984      30.284334      17.637741      27.547110      13.048309       3.949665     -18.985975     -10.473174     -18.677755       3.491053     -13.750412     -30.006601     -24.967596     -17.281574     -15.833876     -20.019529
     191.384583     188.110245      51.871819      39.072285      32.303547      17.407940      27.649101      17.771366       5.744707     -17.640533     -12.940994     -19.430029       4.288233     -13.246946     -30.334944     -23.185230     -17.417940     -15.619679     -19.850201
     202.144394     197.618088      56.905033      41.389099      33.937786      17.400913      28.714323      19.191532       7.930506     -15.895630     -17.057980      -5.208585       3.655774     -12.278991     -25.588495     -18.298458     -16.101227     -19.841640     -22.427624
     207.387100     207.766403      53.503235      43.145710      36.486832      20.677933      30.542603      24.874157      12.739120     -10.668887     -16.105665      -5.670022      11.765598      -0.138874     -10.418196      -8.611348     -13.189808      -7.141984     -13.683927
     212.287781     214.957916      51.500320      45.219498      40.035542      27.565166      32.672451      15.215226      17.359648      -3.559971      -6.037383     -15.331731      18.682270      13.534026       4.132152       0.263367     -11.209018       7.491209      -5.546494
     216.474319     220.229797      53.976532      46.516541      43.563217      33.581570      34.392506      15.097672      20.525913       3.245697       9.616071     -11.373655      22.956802      25.915407      18.158203      12.852435      -7.005299      18.099714       1.834686
     214.661240     223.152008      54.418369      44.429779      45.512142      36.236168      35.559383      17.508762      24.102024       8.989635      20.409420       6.071271      25.778353      37.244644      31.691027      23.172310      -3.991960      31.183479      12.509612
     214.673859     226.778351      54.300854      41.131092      45.131210      34.548100      36.926479      15.826135      26.564857      10.011534      22.489702       8.684284      23.591740      42.440689      38.420258      27.148060      -4.379935      35.719769      19.695114
     212.078766     222.565430      46.295025      43.284195      44.249229      33.950115      39.874020      24.136120      27.370474      11.289564      20.075190       1.344928      22.231695      42.684059      42.346413      29.040251      -4.450052      35.494320      19.783594
     214.275986     212.419907      44.322979      51.818611      46.517956      35.380924      37.949871      22.150129      31.158104      18.892515      18.725500       1.332513      22.764753      43.567936      47.089554      29.417763      -3.390340      34.674133      13.252722
     214.310135     210.924637      51.469307      49.590771      50.467590      33.384209      34.234768      20.931978      35.476215      28.912825      20.358292       2.416119      26.342506      46.699451      51.307480      28.733210      -2.293643      33.122673       6.559029
     204.258957     215.182800      49.675476      47.159195      51.948910      35.472336      33.695766      24.238537      36.478973      36.646706      20.365147       1.738344      31.415630      49.268116      54.561134      28.542000       2.912210      31.726788       5.442057
     194.051437     212.464798      43.369602      48.307579      51.920727      39.922260      40.134186      14.563128      30.002180      38.662045      17.225313       1.917980      25.867916      40.470905      49.833839      24.262930       5.825096      19.005428      -0.004494
     188.093216     207.597137      43.213165      41.421494      52.053604      37.010281      40.651684       2.350353      21.931816      36.850239      15.504612       5.138904      12.131036      24.278082      40.074661      18.704050       4.473315       6.191013      -3.381303
     176.830612     195.769379      45.475769      43.199306      49.676792      34.590527      33.578297       0.510136      18.582453      33.866646      15.412956      -4.802553       0.625271      12.143071      31.520851      13.299256       0.092908       2.889615      -0.676899
     160.369156     170.661179      38.034740      48.928040      43.763554      31.586666      24.733814      10.211667      14.199113      26.781981       9.487766      -6.882272      -4.266315       3.230627      22.705944       7.851030      -3.120172       4.716962       4.029004
     134.769485     140.838989      22.786322      34.780899      32.814445      18.214865      16.501812       6.199543       5.618076      14.051837      -4.547505      -0.759497      -3.811574      -1.248748      13.420767       5.618797      -3.324748       9.563043      10.344559
     114.546867     120.569893      14.442800      17.619581      20.856714       2.563436      12.574260      -4.081884      -2.553107       3.313745     -13.085964      -3.908532      -0.539998      -2.876713       6.200799       6.811547      -2.090616      13.040725      13.346548
      90.116730      99.833565       7.813097       3.284138      11.061848       0.783042       1.388129      -6.823637      -9.780302      -2.450820      -9.040634      -1.994611       2.173380      -6.628416      -3.122907       4.180450      -3.383875       9.692286       7.881122
      62.569981      77.691208      -0.386838      -5.749023       6.900531       5.434235      -5.640675     -11.384294     -15.244774      -4.676159      -1.672387       2.082945       0.163580     -13.305489     -14.256214      -3.476325      -2.716059      -2.654548      -5.594721
      37.205475      53.903568      -4.082752      -2.531401       3.379975       3.112223      -0.771392      -8.264796     -17.814003      -7.791056       2.620631      -4.107586      -5.673776     -18.984991     -20.921465      -8.728718      -0.317395     -13.900967     -15.318276
       4.210115      26.510426     -12.589143      -5.481419      -4.418149       0.964458       1.729571      -6.677232     -12.881515     -11.110168       4.046038       3.026904      -7.523488     -14.860469     -18.326794      -6.445813       0.464347     -13.927728     -14.533384
     -21.344038       4.273120     -14.795485     -15.246969     -13.546022      -8.940578      -9.555096      -8.133842      -6.298873     -12.652547      -0.706868       1.128358      -1.968737      -4.595273     -11.646316      -5.870209      -7.025344      -6.114544     -12.105917
     -48.865784     -29.397877     -18.341927     -23.007299     -24.457792     -20.254757     -28.760347      -1.065787      -3.608643     -13.437387      -9.575777     -11.020440       4.077509       2.632540      -3.671170      -5.859859     -10.879580       3.108214      -7.228103
     -77.908936     -60.058434     -29.844181     -28.670681     -35.432571     -33.731983     -30.438515       4.976247      -6.941512     -19.019621     -21.072134     -26.108356       6.033207       2.253966      -0.812534      -6.271864      -8.797856       9.028445      -4.546092
     -97.861465     -82.302902     -35.733387     -35.421593     -42.762653     -45.519424     -31.020967       1.021696     -13.517975     -24.900286     -31.985935     -28.610537       3.651877      -3.432477      -5.367758     -13.220552     -12.165541      10.682186     -10.327469
    -118.004974    -106.703712     -39.674793     -39.607357     -45.447819     -48.560963     -43.553429      -6.707485     -18.158325     -26.590605     -35.774120     -12.017273      -5.746881     -13.877717     -15.546173     -21.673368     -14.363391      -1.708652     -24.503124
    -135.535217    -121.080688     -41.348465     -39.618282     -45.277458     -49.408169     -41.927509     -15.144392     -20.219358     -26.489145     -38.754986     -12.088127     -14.831026     -22.972334     -24.566404     -28.343960     -17.648228     -20.292641     -35.060379
    -151.962662    -139.165009     -42.628601     -41.179394     -48.008289     -51.819153     -48.166748     -23.758820     -17.951860     -25.076359     -41.988297     -20.979982     -20.129671     -23.582317     -22.653965     -29.008760     -22.478384     -32.569118     -36.435955
    -168.757233    -157.211868     -45.461147     -43.962425     -51.005646     -58.079281     -55.326107     -20.498652     -14.476439     -22.795443     -43.337925     -21.631769     -23.638794     -19.977579     -14.085606     -23.722044     -22.258389     -43.939968     -40.971874
    -177.580002    -165.118195     -44.390434     -44.465820     -52.525631     -62.203728     -51.200027     -12.568113     -15.462071     -20.026476     -39.470360     -15.474203     -25.317856     -19.723703      -7.897293     -18.290119     -16.405588     -53.098511     -47.714417
    -189.030365    -174.901779     -49.885368     -44.711159     -52.321037     -54.218010     -49.208122     -17.337553     -19.404816     -14.923844     -25.853537      -4.390838     -29.402855     -23.031061      -4.245507     -14.304263     -12.217060     -56.782185     -49.365177
    -195.293442    -180.640350     -54.866444     -46.240597     -49.191906     -47.650497     -42.887226     -21.533434     -24.906891     -12.146842     -14.651875      -7.593329     -33.287163     -25.277105      -2.479710     -12.158251     -13.815601     -56.859806     -48.217667
    -202.987640    -188.006241     -56.356853     -46.569225     -47.094234     -47.507343     -41.815773     -31.667511     -27.090895     -13.161910      -9.020616     -12.827703     -31.017569     -19.846390       0.107890      -9.791371     -16.670132     -50.450939     -51.107944
    -208.826080    -196.412186     -60.241974     -48.871082     -47.252838     -49.819988     -47.253586     -23.053108     -23.627249     -15.772996      -5.078766     -13.053705     -20.493500      -6.369530       3.867195      -5.678445     -16.974659     -30.777113     -45.199245
    -210.396652    -197.997147     -61.463303     -50.477791     -50.175915     -47.438412     -50.699341      -3.670492     -18.639042     -19.927170      -5.267859     -13.501830      -7.715468       5.512502       3.784798      -4.930591     -18.110641      -5.861009     -22.023346
    -218.086349    -200.851517     -64.520081     -58.481358     -61.520611     -51.589752     -50.938892     -19.311892     -21.406673     -29.021687     -16.727566     -10.345002      -9.080460       4.863245      -4.478922     -14.954820     -24.033083       6.210958      -6.964601
    -226.548111    -207.041672     -71.059761     -68.943176     -73.151604     -59.945812     -52.195847     -32.481247     -30.305508     -38.554852     -27.323463     -13.293306     -17.463259      -3.601964     -15.492453     -28.570343     -30.023365       3.411308     -11.373490
    -223.176254    -209.862518     -70.265839     -74.376480     -77.039375     -58.202385     -48.156834     -34.341080     -38.523144     -44.645618     -32.004318     -16.180428     -27.742739     -15.938753     -24.133512     -38.102127     -32.798439     -13.130062     -26.297529
    -218.062027    -208.094009     -68.856453     -79.263611     -76.489876     -60.190445     -43.900429     -36.694675     -42.059208     -44.887989     -35.237118     -17.249327     -39.071789     -28.502571     -26.931681     -43.576412     -36.210403     -34.192940     -39.946323
    -211.450104    -200.711945     -66.015099     -69.233582     -69.192223     -61.020615     -42.517181     -26.995575     -39.097725     -38.614792     -33.829483     -14.591176     -47.787388     -33.973484     -19.952595     -39.157749     -35.362465     -46.679268     -40.429058
    -205.600037    -193.593567     -58.635544     -54.217724     -58.229416     -52.262627     -40.218090     -20.764572     -31.518745     -26.259632     -28.957586     -12.658493     -50.111786     -32.387711      -7.948201     -27.995571     -31.252983     -52.605053     -28.745928
    -200.315582    -191.913574     -52.214062     -48.287960     -52.923306     -43.684460     -42.721725     -29.819683     -24.142988     -15.613956     -27.183285     -22.285938     -49.407825     -28.138254       2.290191     -20.612251     -28.954510     -52.332645     -18.269327
    -201.310959    -197.245239     -51.494293     -49.264782     -54.360386     -45.511414     -50.226677     -33.710934     -22.405687     -12.358026     -26.603437     -20.365837     -47.131474     -25.284943       8.738490     -14.018703     -22.291496     -46.235744     -11.939488
    -207.830002    -202.360001     -56.869999     -56.240002     -59.369999     -51.119999     -50.480000     -31.290001     -26.590000     -14.860000     -27.990000      -8.440000     -41.400002     -23.139999       9.530000      -7.580000     -15.360000     -32.610001      -3.680000
    -211.803925    -203.359665     -58.377022     -58.802166     -65.405602     -59.662815     -54.718781     -21.092190     -30.387995     -21.140465     -30.540749     -11.511106     -30.713808     -17.975788       7.214036      -3.104175     -10.658534     -10.999783       8.602427
    -210.439941    -201.409348     -59.462318     -59.095745     -68.330322     -64.295631     -54.032734     -17.259220     -36.363770     -26.548203     -32.345741     -13.186582     -24.417229     -20.955147      -3.985198      -4.455443      -9.600384       0.197239      13.979025
    -207.711121    -198.834564     -60.579933     -62.145126     -68.365509     -58.348114     -50.391323     -22.501251     -42.536789     -33.181324     -33.379204     -11.334027     -22.597338     -27.392227     -18.397306     -11.876880      -9.282562       4.192752      12.159705
    -207.079727    -200.844269     -63.049530     -67.144394     -69.027718     -54.439236     -52.347889     -25.701117     -42.627823     -38.159782     -33.086647     -16.075331     -25.580830     -32.704426     -28.763266     -22.594793     -10.924691       0.360188       5.164331
    -206.221756    -204.867462     -63.791813     -66.225121     -67.131920     -53.177799     -53.107407     -27.268639     -36.355251     -34.882027     -31.850031     -23.923712     -25.686926     -31.106075     -30.723948     -26.308022     -12.695351      -4.547621       1.989228
    -200.439011    -199.880951     -56.492455     -53.842106     -60.233116     -48.559696     -50.600212     -26.950380     -27.782398     -28.941948     -31.462234     -33.523571     -23.266401     -23.859840     -24.671318     -21.781433      -8.341842      -4.015915       6.263679
    -191.875153    -189.410736     -48.574299     -43.040489     -52.755375     -43.908993     -53.771584     -24.039639     -23.775614     -23.717884     -33.637054     -30.255491     -20.268860     -19.320274     -18.134262     -17.672680      -6.052160      -0.184308      12.302166
    -185.948746    -187.467529     -50.764519     -41.009754     -50.002007     -41.903759     -55.152332     -25.041218     -26.218771     -22.632280     -37.682274     -20.753836     -19.454321     -19.070789     -14.300562     -18.486168     -13.521832       5.544765      13.275081
    -179.256180    -184.548965     -53.864872     -41.094612     -47.092026     -39.512421     -50.274811     -18.268368     -27.816088     -21.028028     -37.558208     -20.120405     -21.193775     -16.772152      -8.619725     -19.684713     -17.727823       9.127525      11.935556
    -175.137390    -180.825363     -57.124027     -45.974983     -45.899891     -37.574455     -46.637985     -30.931650     -27.712770     -18.945137     -37.866779     -22.474073     -24.402056     -12.443982      -0.631164     -19.504597     -17.470566       9.519779      10.203219
    -175.861206    -180.577118     -62.677185     -51.500614     -49.483421     -43.720852     -48.738411     -37.104515     -28.813400     -19.256077     -45.694263     -33.877487     -25.422724      -6.643409       6.146757     -20.041355     -19.506548       6.012830       7.547321
    -177.606445    -178.127808     -60.581657     -48.972923     -49.655045     -46.941261     -50.905148     -25.743389     -26.451294     -14.446974     -46.300106     -42.929695     -18.921219       2.221131      15.565323     -11.712743     -15.450384       8.267075      14.743092
    -171.436142    -173.135117     -57.123104     -46.722557     -48.567638     -42.997742     -50.132938     -34.380375     -26.608377     -10.237525     -36.230381     -28.805275     -11.021090       7.175826      22.327541       3.656445      -6.481497      20.113758      26.281609
    -166.539825    -172.101578     -59.813461     -51.564899     -53.276375     -44.532440     -50.814270     -39.417473     -37.161716     -14.437007     -26.739756     -23.431419     -10.379766       2.375630      20.097181      13.177643      -2.400162      27.138201      30.301039
    -169.228409    -174.382950     -62.609543     -58.170708     -59.179321     -46.279884     -54.165970     -34.735802     -51.826683     -23.339117     -21.386362     -21.098520     -15.019811      -6.223686      13.274997      13.637115      -1.680384      27.096643      32.445568
    -169.195938    -169.503647     -60.745960     -59.923260     -57.625282     -38.199463     -50.225712     -36.644089     -56.792152     -26.307325     -17.590803     -22.247185     -15.318748      -5.724549      12.977863      12.446622      -3.248245      32.095886      41.708328
    -167.799438    -162.591202     -58.121185     -59.616814     -52.913738     -35.671196     -45.629772     -28.487616     -50.644398     -23.594221     -16.185148     -23.601189     -15.757232      -5.763910      14.146898      10.126702      -5.739509      32.610653      43.196285
    -165.762817    -159.382111     -55.382248     -57.636417     -49.883812     -41.897121     -46.639511     -27.904457     -38.684742     -19.391182     -14.564548     -30.482075     -18.200342      -5.302306      13.751162       6.590417     -10.511953      28.675390      36.850670
    -163.269272    -163.595535     -55.193287     -56.337551     -48.717712     -45.489208     -50.227749     -34.774422     -25.878086     -15.261220     -13.507788     -31.806219     -14.710918       0.557229      15.037092       4.561487     -13.328642      27.076618      33.142963
    -157.560196    -162.855499     -55.114552     -52.054882     -47.915642     -42.697666     -50.697750     -35.987125     -17.470339     -12.350442     -11.203253     -20.067987      -9.859723       4.070186      15.475685       4.601172     -13.030988      25.499115      28.961700
    -147.065643    -149.138702     -47.699070     -47.379673     -44.313015     -37.566891     -44.942074     -25.784983     -15.313390     -12.650322      -9.274682     -15.696794     -10.760565       2.083307      10.812583       2.248021     -14.813735      19.814545      24.316135
    -140.165527    -141.230789     -41.050571     -43.030930     -39.380737     -36.257874     -40.566662      -9.652812     -12.821733     -14.156766     -13.066331     -22.752054     -11.637103      -0.551708       4.420683      -3.598839     -15.554223      17.334524      20.747276
    -140.300583    -142.045334     -42.834312     -40.363102     -37.090321     -38.650867     -40.256477     -12.227847      -9.782489     -15.274612     -23.316856     -22.368500     -10.246967      -2.448841      -1.048310      -9.643590     -15.050070      18.399778      19.842382
    -136.915955    -138.915405     -42.410847     -39.035107     -38.469498     -40.000999     -42.825119     -14.643070      -9.462647     -19.956745     -34.311005     -15.817799      -7.872076      -4.208169      -7.090400     -14.381215     -15.032804      17.973427      17.592148
    -136.195908    -138.361603     -39.210361     -41.610409     -42.022430     -40.820271     -44.957485     -11.797253     -14.070649     -29.329700     -41.953106     -16.494970      -8.986868      -8.511867     -14.817325     -19.157454     -17.278149      10.679801      10.063566
    -137.214218    -135.465393     -39.388447     -47.970200     -44.436836     -39.619724     -40.242348     -11.460886     -21.362896     -36.895687     -41.146488     -24.218307      -9.855869     -12.488523     -20.543005     -21.814949     -21.232769       4.887671       5.130499
    -130.325226    -127.810188     -39.509415     -51.237076     -46.490643     -41.633526     -32.262444     -15.641222     -31.091570     -43.223610     -37.323807     -25.492018      -8.274833     -14.845919     -23.695705     -19.917376     -20.256750       5.274466       6.636596
    -124.609146    -123.801529     -43.508316     -54.329079     -49.252930     -41.541695     -35.368523     -19.722828     -45.052013     -46.144630     -34.273266     -25.461624      -7.612908     -17.794842     -24.159182     -14.223568     -12.891527       6.558955       8.519260
    -105.261185    -106.063446     -42.167900     -53.863018     -44.212784     -34.616711     -33.773781     -20.780085     -51.572189     -45.327557     -28.980980     -14.555902      -6.126584     -18.920496     -24.148342     -11.609049      -8.627355       7.517511       7.486320
     -75.324471     -79.675789     -33.346790     -45.105232     -33.978451     -26.597729     -29.443989     -25.252773     -49.165951     -39.889793     -20.102556      -9.232108      -7.555930     -21.957424     -27.448294     -15.810909     -13.186989       7.473927       5.033812
     -37.227097     -44.300179     -23.447216     -31.492907     -20.139046     -10.899838     -17.483713     -14.988077     -42.763798     -28.787958      -6.909582     -11.445369     -10.366809     -24.204769     -26.740149     -14.686773     -11.848232       6.613112       8.122563
      12.735556      -0.676613     -13.338490     -14.870808      -2.024942       7.954939       8.372592       7.173524     -31.064663     -18.039492       2.905071      -6.213060      -8.196015     -19.330648     -20.603477      -7.127358      -5.100408       6.111537      13.487799
      67.822212      44.671146       8.394158       8.882357      19.110031      24.808468      23.623077       4.823717     -15.112702      -7.465018       6.133342      -6.633220      -1.671426      -9.641068     -13.521182      -2.927643      -3.606508       8.015475      14.350514
     116.029915      90.740898      29.395863      26.306284      33.441730      34.657562      25.339025      -2.465463      -5.052433       1.025001       6.141661      -9.089371       1.879657      -2.175667      -7.576083      -0.662015      -0.808846       9.894622      15.030488
     147.554245     124.318359      32.970749      32.385159      36.868153      34.361023      24.636871      -9.525249      -4.122014       3.943008       2.653754      -1.927934      -2.390154      -2.670852      -6.561493      -1.659336       1.682285       6.630784      12.418060
     164.630539     138.618958      30.418861      31.225443      34.978107      27.178427      20.250118     -13.349434      -3.486230       2.765902      -7.001405      -2.553537      -4.200588      -5.531826      -8.528277      -8.135949      -1.247255       5.678377       4.993765
     177.010330     146.558731      34.945122      34.695065      36.232433      21.861769      21.129128       7.558851       2.569543       4.020025     -11.707732      -1.914515       5.070544      -1.128673      -5.451032      -7.082522       0.067465      15.155463       3.778965
     181.398422     150.858826      44.411404      44.535397      40.573460      23.972973      25.264099      23.722040       6.716089       5.071658     -13.295391       6.062079      11.596764       2.515458      -4.302553      -3.164482       1.878333      19.463331       2.836640
     176.632126     155.178238      43.922604      46.136097      40.493965      29.009739      20.869726      17.166908       4.085562       3.757820     -10.636751      13.829492      10.337063      -0.388302      -8.103210      -4.679080      -1.222943      14.414273      -6.475210
     173.747696     160.057724      40.169216      42.841175      40.169994      33.499184      21.189701       7.936689      -0.495358       4.307607       1.663237       9.342368      10.157553      -2.651896      -9.411688      -2.098454      -0.432917       7.283189     -10.745957
     170.166641     156.274567      41.569786      33.514603      35.120693      19.696344      16.701618       7.757505     -10.354884      -1.392744       6.862482       5.529651       9.456305      -8.079508     -12.399182       0.527484       0.979686      -1.391566     -10.983915
     150.287643     137.971252      33.390343      13.276174      23.005117       2.871587      18.465401       6.711498     -18.526262     -11.781941       1.016761       1.788660       9.934608     -10.871852     -15.213942      -2.626089      -0.370881      -3.803866     -10.907817
     117.156494     112.511444      22.906116       4.529414      12.640257       2.605275      16.556719       6.754295     -15.376960     -16.702837      -1.777261      -9.579367       7.727709     -10.988188     -14.797038      -8.723117      -3.546789      -7.242769     -14.999449
      88.798187      87.859749      20.517406       9.579328       9.934771       5.004764       7.374104       8.823251      -6.735971     -12.186935       1.606313      -2.450107       5.653608      -8.431231     -11.522287     -10.145524       0.060617      -8.342622     -11.862153
      65.978889      65.022614      14.739591       7.491194       7.817324       3.665731       4.412328      14.174809      -0.491654      -4.408870       6.130561      -3.299655       9.508205       0.002605      -7.208193      -7.445724       5.038864      -3.196706      -3.096002
      42.148987      42.044094      10.104173       1.226291       2.305877      -1.634722       0.645118       8.513275       0.000143      -3.521924       2.256144      -9.741099       8.231435       3.863219      -8.806803     -11.694779      -2.482845      -1.253614      -1.938259
      22.888523      20.062599       8.625114       1.289335      -0.399894      -4.878432      -3.814593       0.051949       0.825063      -7.792424      -4.815602      -7.402920       5.334058       4.579447     -13.323140     -18.190805      -9.504618      -1.644886      -3.791966
       8.920281       1.159097       8.996235       1.517918       0.638027      -5.499829     -10.287304       1.597121       6.317227      -8.468099      -7.220283       1.200697      10.894894       9.872767     -11.282222     -18.990849      -7.868064       3.435802      -5.811069
     -12.093386     -20.450827       6.751281      -2.876402      -4.201255     -11.186132     -19.268311      16.709991       6.883266     -12.003208     -15.513319      -9.088912      12.610323      11.195720     -10.828956     -21.308855      -8.228220       2.555899     -11.715922
     -39.244247     -42.565659      -1.916911     -13.835298     -16.501465     -21.377653     -22.180162      12.190804       1.745996     -20.255156     -28.211033     -28.424198       6.649787       5.731749     -17.020149     -22.933756     -10.532032      -7.220016     -18.130932
     -61.549339     -59.850357      -8.529681     -27.540277     -25.946363     -28.092903     -21.493366       4.615944      -4.497629     -25.743822     -30.213539     -11.395297      -1.798472      -4.085657     -25.013361     -20.250568      -7.768649     -17.135632     -20.040092
     -76.885536     -69.588654     -12.011483     -32.142960     -28.339010     -28.202780     -20.200748       9.114854      -6.972795     -25.689461     -20.242611       7.615313      -8.651873     -10.729758     -27.551214     -13.284500       2.046615     -21.398462     -13.590254
     -80.299026     -74.028084     -13.981616     -26.431444     -26.358038     -25.309641     -20.512331      -6.107165      -6.966031     -21.018324      -9.833741      -1.861653     -10.326672     -10.670486     -22.158497      -4.794161       3.827430     -17.768478      -5.481890
     -83.754478     -81.084442     -14.703367     -15.234544     -21.674421     -21.176191     -23.699068      -5.752636      -7.241725     -13.687565      -3.860441      -8.433420      -4.954391      -8.386681     -14.205498       0.774230      -1.201992     -10.787592      -1.406499
     -89.434509     -89.778885     -11.883795     -13.896637     -18.747185     -17.778967     -26.733057      10.448741      -9.786885     -11.668706      -1.447310     -13.611651       2.022199     -11.814211     -14.764384      -3.687424      -6.669487      -6.662223      -6.889490
     -93.827400     -94.827477     -13.472372     -18.539331     -15.494373      -8.908879     -26.336372       9.447206      -9.997971      -6.717287       5.458626      -9.931366       8.063859     -11.411955     -12.477804      -8.367151     -11.770556      -1.133469     -12.972659
     -95.701302     -90.844643     -20.921177     -22.246969     -13.189663      -1.797355     -20.222460      -1.321810     -10.538669      -1.625254      10.824140      -8.421094       5.672816      -9.671193      -7.873055      -9.158714     -13.829392      -5.002728     -15.403686
    -102.713844     -92.753563     -28.500853     -28.891754     -17.430162     -12.463452     -15.986351     -14.968169     -16.331442      -4.908841       9.182022     -12.862755      -8.488530     -15.566344     -11.300735      -9.731877     -13.826078     -18.831772     -19.500429
    -107.076820     -98.631645     -29.665653     -30.318655     -16.324396     -14.720718     -16.072691     -16.220491     -15.716455      -1.739591       9.369839      -6.695767     -18.983875     -18.018833     -14.291534      -9.063917     -11.626443     -29.349409     -21.055483
    -105.241135    -100.695633     -25.861721     -22.045185      -9.993969      -8.482251     -21.417608      -0.393301      -4.699521       6.717466       9.305460      -5.457731     -16.021433     -12.440746     -11.263920     -10.435095     -10.471162     -32.845482     -22.272840
    -106.418648    -105.512207     -22.414581     -12.148806      -4.493677      -4.554198     -19.309540      11.135167       6.909309      15.254044       7.300038      -4.752422      -4.449258      -1.685829      -1.542653      -9.402783     -11.214990     -19.256117     -17.157816
    -106.805695    -107.217407     -20.160168     -10.686127      -3.740313      -4.501546     -21.504877       0.640168      10.607521      18.346292      -0.920906      -5.741508       4.370492       7.781814       6.197359      -9.982360     -13.667455      -1.372995     -11.698993
    -108.389107    -106.248405     -24.191868     -19.850130     -11.968454     -20.481066     -32.400024      -4.791582       5.097998      11.085384     -13.616565     -13.756742       8.792165      11.598989       5.385468     -16.032009     -20.507267      10.885262     -11.684021
    -112.309998    -110.349998     -27.389999     -24.680000     -21.010000     -36.570000     -43.380001       2.150000       0.050000       5.990000     -12.420000     -14.190000      11.730000      13.030000       5.140000     -13.110000     -18.950001      19.570000      -3.830000
    -114.944084    -113.890038     -27.241610     -26.001770     -23.917536     -32.916771     -41.335930       2.667696      -1.783509       3.987006      -2.842911      -7.808330       6.203224       7.643093       2.346279      -5.564656     -12.322942      15.500946       3.461283
    -115.193573    -112.535675     -27.453478     -28.464724     -22.313978     -21.514002     -33.670441      -8.449546      -3.250357       1.611034       2.168962     -13.282187      -2.727110      -0.749357      -1.916356      -1.029215      -7.922065       4.696085       7.574488
    -108.838776    -110.455658     -23.464994     -23.845076     -18.866959     -18.113018     -29.658144     -10.852031      -4.077554       1.280656       0.257234     -18.160698      -3.893247      -2.949209      -2.822301      -0.046467      -6.576265       0.071949       9.916785
    -104.031311    -111.161766     -22.308676     -17.204067     -14.526142     -17.533859     -31.924347      -2.598678      -3.796618       4.322780      -1.791697     -20.217577      -2.711844      -3.798594      -3.461927       0.399703      -7.302973      -0.055941      10.281022
    -100.850159    -104.234375     -21.512016      -9.190657      -5.286429      -9.410963     -28.786591      -2.612167      -2.077558      10.245453       0.799956     -16.889267       0.624504      -3.698198      -4.367241       1.138664      -2.932542       5.004185      12.501405
     -99.378052     -98.015251     -24.402073      -5.707550      -0.924368      -1.913844     -26.075924      -2.174752      -4.913527      13.107602       1.265705      -2.136988       3.773673      -3.518555      -3.452430      -2.829450       0.910552      10.111993      13.482892
    -101.683495     -99.277031     -33.152943     -15.996636      -6.874378      -5.788763     -30.380527      -2.658601     -12.632212       9.617503      -2.117898       2.025993       0.328534      -6.008894      -2.296320      -7.792600       2.455722       4.504766      10.454889
    -103.147682    -102.198090     -36.229080     -25.583063     -12.948630     -12.046272     -31.029060     -11.640008     -15.848146       7.514317      -1.827170      -2.682160      -1.054669      -5.471893      -0.236209      -6.760545       3.779867       2.189673       9.390030
    -102.852730    -103.371452     -33.576824     -26.547722     -15.982302     -19.756691     -31.117332     -10.647122     -10.526831       7.500443      -1.026085      -6.748750       3.253411      -1.562016       1.638137      -4.586237      -1.149471       6.588517       6.809433
     -98.446487     -99.972672     -27.081640     -23.956070     -15.518908     -21.429369     -29.671951      -5.058169      -0.670662       7.224366      -0.487525      -7.149810       5.332961       1.882418       4.414423      -2.189323      -6.738244       4.657170      -0.488169
     -94.736740     -98.273056     -20.122421     -18.832029     -12.043047     -17.639240     -27.042797       6.592040      10.225585      10.934104       6.503291      -6.578675       8.513079       6.604517       9.900182       3.129580      -7.850564       3.802737      -5.569937
     -94.460930     -95.028244     -14.023535      -9.062836      -8.143387     -12.848685     -24.481361      13.976693      16.322012      16.321701      11.218299     -11.009953      15.099528      12.524369      16.078621       8.323683      -6.630909       9.887966      -3.160631
     -99.508377    -100.529808     -14.650844      -3.727694     -11.759288     -17.587770     -28.972017      13.040129      12.276763      10.395354       1.921696      -7.949737      17.075148      12.737000      13.352787       2.690998      -6.599549      16.197285      -0.328957
    -107.939613    -113.955696     -22.103130     -15.945361     -23.135471     -29.173141     -41.405872       7.767665       6.429079      -0.866575     -10.910159      -4.997753      12.059205       8.811688       6.329702      -8.297789      -6.936910      15.979347      -0.426561
    -111.665291    -119.187462     -29.090668     -27.371155     -31.347527     -34.189594     -43.345707     -11.733270      -1.653375      -4.481758     -14.822977      -6.532349       2.074029       2.552616       3.253596     -10.822937      -3.347327       7.830590      -0.548711
    -108.332413    -113.472054     -31.170477     -26.026562     -29.748621     -27.236063     -31.477663     -10.578641     -11.724378      -1.510878     -11.164059      -4.438245      -0.783198      -0.373455       5.619415      -2.721621      -0.315739       6.013918       3.268301
    -106.516136    -105.988091     -28.844212     -20.237358     -23.767117     -24.102444     -28.937040      -6.316700     -12.504212       1.505596      -3.705491     -15.768449      -0.027358      -1.700867       6.406533       5.647895      -1.651461       4.245776       5.225045
    -101.984215    -101.529312     -22.897572     -16.220949     -19.187277     -23.587772     -27.457169      -2.338623      -7.623166       3.190878       3.455536     -10.324183       0.434641      -5.198426       1.029770       7.531372      -2.122478      -3.774991       2.270758
     -97.483734    -101.674690     -18.983690     -23.002985     -21.914764     -22.905384     -27.746319       8.796049     -10.602060      -2.144875       1.488557      -1.278843      -3.057348     -13.742767      -7.947359      -0.941494      -5.188209     -16.486626      -8.086765
     -97.545822    -100.354950     -18.228003     -26.516108     -26.341757     -23.799274     -27.959284       2.236955     -16.827436      -7.839589      -4.604941      -3.921697      -7.081630     -19.640154     -10.773987     -11.113845     -11.192432     -23.752535     -18.778923
     -93.921867     -97.554939     -16.694643     -27.639978     -25.568705     -19.663353     -19.835020       0.487222     -19.858618      -5.937902      -7.277162      -5.989844      -9.397139     -20.067097      -6.378808     -14.341198     -13.109010     -21.578188     -18.379469
     -91.396118     -95.752724     -18.193279     -27.989075     -22.676317     -16.540285     -16.753115      -1.735939     -22.196802      -2.757681     -10.805195     -16.051041     -15.662929     -23.814505      -5.598558     -17.230177     -12.257810     -25.386810     -18.589218
     -91.289688     -93.151505     -23.992100     -32.020493     -22.685236     -17.045076     -18.247103     -14.539262     -26.409353      -5.332538     -12.691457     -19.044474     -22.716425     -30.441542     -11.542418     -18.278128      -8.512751     -31.533178     -18.495571
     -89.277870     -91.987267     -28.108648     -36.736328     -23.998604     -18.969402     -20.288769     -10.737673     -29.637440     -10.680929     -14.332727      -2.193439     -22.158777     -31.526115     -16.413116     -15.378985      -6.399256     -26.658247     -15.285336
     -90.599197     -91.887489     -26.481951     -31.290745     -23.213331     -21.077393     -23.712692     -12.200019     -25.825867     -13.214218     -14.727336       8.549518     -16.297993     -24.796387     -15.501707      -8.043506      -5.320260     -12.563638      -8.482104
     -87.901817     -88.037148     -22.859831     -24.090893     -20.508204     -21.527122     -20.799419     -11.691109     -18.028826     -10.791199     -12.261459       7.896395     -11.922011     -17.727041     -13.332744      -1.903977      -3.833408      -4.352248      -3.071927
     -86.301125     -85.775475     -23.358114     -25.924072     -21.110928     -22.866451     -14.711729      -1.252527     -13.079867      -7.675550     -10.417645       6.592075      -9.949431     -11.473944      -9.869349      -1.443941      -8.015522      -1.624569      -3.063564
     -88.956383     -86.334755     -25.123165     -30.280081     -24.720409     -23.468830     -15.847099       3.790176     -13.859427      -9.066988      -8.932200      -7.018570     -10.949138      -9.856318      -9.490017      -4.887310     -13.719738      -2.718249      -5.521463
     -86.594643     -84.618500     -22.176811     -30.209284     -27.768553     -25.590738     -17.680981      -3.510042     -15.702661     -14.755239     -13.385228     -17.790075      -9.984087      -9.555032     -13.727248     -12.831958     -17.036528      -3.434268      -8.540222
     -85.326973     -84.158455     -22.503073     -31.426439     -32.969105     -34.256531     -21.831760      -7.054250     -20.356497     -24.422043     -25.330837     -14.281668     -11.409939     -13.230497     -22.875002     -23.304220     -18.861927     -10.121426     -15.072127
     -84.778984     -80.317886     -22.701447     -35.512470     -36.905338     -36.412895     -21.734531     -11.056499     -22.810808     -31.890129     -31.581694      -5.517725     -12.837680     -16.925161     -28.729658     -27.263678     -16.113297     -15.080298     -17.345701
     -83.837761     -79.052574     -24.072435     -39.363503     -41.426025     -40.215797     -23.540863      -6.668768     -24.310478     -37.080837     -33.512543      -3.151724     -10.373331     -15.657633     -26.596287     -25.869905     -13.640031      -9.330242     -11.189924
     -81.663582     -80.014610     -25.055138     -41.690277     -46.298935     -42.230396     -30.586586      -1.284827     -24.929476     -41.900063     -34.236015      -2.314755     -11.719728     -15.896614     -22.749372     -23.362755     -11.220226      -6.470557      -3.557423
     -79.758896     -79.412300     -22.677187     -38.511467     -48.056252     -37.825485     -30.605402      -3.162530     -20.423861     -42.298439     -28.229794      -9.165026     -15.499514     -14.233556     -18.517059     -20.705925      -9.434159      -8.034338       0.824777
     -78.420685     -78.566154     -23.868055     -37.071674     -47.675114     -34.927181     -27.155024      -6.867013     -15.197126     -36.994030     -18.939333     -15.164165     -14.037247      -9.470475     -13.199635     -17.150116      -7.355704      -4.696323       4.529907
     -75.309532     -75.649910     -24.558823     -36.419712     -45.425056     -36.171955     -22.113642      -2.556041     -11.179343     -28.685633     -16.679787     -11.691086     -11.359699      -7.417644      -9.364579     -14.630368      -3.930461      -5.817420       2.490994
     -72.831955     -71.701248     -26.244156     -37.524540     -44.037716     -39.788403     -22.068882      -5.598472     -12.438291     -25.351492     -21.030117     -12.670560     -13.308705     -12.177691     -12.830050     -17.075460      -2.826822     -10.857570      -5.610642
     -68.617966     -65.747208     -26.506622     -36.500412     -40.556419     -40.245140     -25.005445     -15.520105     -14.518024     -26.650370     -27.235796      -8.117206     -14.568886     -18.599466     -21.481428     -23.146933      -2.830354     -12.740926     -10.285065
     -60.688484     -57.760658     -21.859951     -29.283155     -35.665348     -37.007439     -20.788332     -12.594490     -12.546074     -26.871105     -31.023903       9.719984     -10.385713     -19.411465     -26.241209     -27.093365      -3.096892      -8.630878      -9.194923
     -54.798317     -54.010654     -17.473928     -25.249628     -32.911404     -30.801441     -14.679420     -11.286723     -10.782027     -26.036306     -27.693233      13.776396      -8.811028     -16.260504     -24.466888     -24.124908      -3.683468      -4.758923      -8.543819
     -46.479340     -44.982635     -10.428514     -19.989914     -27.148403     -23.138456      -9.471750      -3.611520      -5.459806     -20.310646     -16.409498       6.874494      -2.866538      -6.470372     -12.703571     -11.348158       1.011234       1.198929      -4.928035
     -38.213280     -34.927086      -6.793064     -16.743307     -23.877983     -22.397673      -3.419351       6.338869      -0.875106     -15.163811      -8.591247       5.279596       4.506842       4.108783       0.419252       1.758691       6.008941       4.091167      -0.073899
     -38.174698     -34.678864      -6.489643     -16.319874     -23.627501     -22.050446      -1.053509       4.772152       3.238187     -11.768404      -4.330697      -0.799990      10.081546       8.743875       7.355305       8.704824       8.908722       5.779199       5.949569
     -35.173969     -29.193750      -4.563533     -13.662498     -23.485706     -19.492363      -0.177210      11.942623       5.423687     -11.494908      -2.934027      -5.461255      12.271093       7.167185       5.244580       7.326119      10.602764       6.775135       9.887985
     -20.229027     -14.471611      -3.090369     -12.397770     -23.297518     -17.564543       3.138197       0.305118       1.449956     -17.588799      -8.310985       5.240287       5.105726      -2.155134      -6.693266      -4.162005       5.747217      -0.137904       4.550277
      12.681769      11.843339       5.441132      -0.493821     -12.675567      -7.961391      11.149646     -13.324756       4.054210     -14.759631      -7.840797      11.935397      -0.341671      -5.140834      -8.829074     -10.800610       0.495077      -2.328781       3.645531
      64.728355      53.103546      24.916325      19.717535       4.920506       7.329798      24.784824      -2.608195      14.594408      -3.376288      -1.050229       6.560301       3.936688       6.128275       2.983651      -7.125333      -1.296367       9.410802      10.536203
     120.884598      99.523666      40.260307      34.031815      17.410488      19.013575      37.380619       6.225075      20.115471       2.498784       2.084363       9.613222       7.339191      14.526811       8.677534      -7.082594      -3.006286      17.550684      11.881847
     173.069839     145.721954      47.454784      42.530525      25.179998      26.661018      41.262436       7.533054      21.336050       1.740535      -0.243720       5.436149       8.021889      16.442122       5.705224     -11.897100      -6.848068      16.900015      10.935541
     208.535568     179.551041      52.717285      49.007385      31.412016      29.715115      38.822411      11.185886      23.300261      -0.747925      -5.313715       2.245841       8.023032      15.003132       2.312890     -14.094900     -10.918132      12.998020      11.913321
     229.127838     205.457062      57.620800      56.111732      37.605309      32.489799      41.152290      22.111332      28.963350       1.717749      -7.477588       2.971377      15.299264      19.192316       6.407632      -7.157427      -5.525539      18.883875      20.366861
     242.209290     225.593063      63.100899      59.860149      44.278046      37.561207      43.604076      26.302605      33.703247       8.150775      -2.993345       1.722307      25.952482      26.669815      13.129901       4.668361       6.967832      31.405197      33.557816
     242.907272     230.853531      62.260773      59.081894      50.004509      40.711941      38.768173      28.654434      33.369976      14.097742       1.885979      -9.916041      29.519703      29.342270      17.086130      11.079438       9.701283      37.833897      38.122566
     243.753342     236.080399      62.854851      67.419472      58.661491      51.472672      38.854633      24.771246      33.119705      21.866270      10.410375     -17.093668      21.181868      25.920057      19.696758      12.657282       1.720953      31.173334      32.335175
     246.826111     242.014084      66.221184      75.056625      67.375923      63.546577      45.457748      20.038628      35.329674      33.557568      23.594015       2.960896      15.266573      25.834816      26.675648      18.532207       1.442796      23.995573      26.486872
     236.445419     230.588104      61.194401      65.619545      68.477562      58.978790      45.578709      14.208228      36.848392      42.664165      30.937124      22.373449      19.915352      30.662941      36.497211      28.322731       9.109860      25.798155      27.341345
     215.417694     210.562531      54.681080      63.498013      65.894569      53.709064      39.678352      20.517189      37.262066      46.768700      36.281017      17.278564      25.461952      34.819408      43.894135      36.914864      15.024956      28.587812      30.026840
     192.453674     191.144547      49.009972      65.246437      60.660938      47.618587      35.836109      18.263838      38.084522      46.602161      41.474716       9.515264      27.697975      36.300156      45.518284      37.866280      18.494986      27.169315      26.178894
     168.781616     169.526947      42.168808      50.150928      50.065441      37.216236      31.803408      11.952461      37.436111      40.748306      41.114128       7.686176      27.477417      35.456982      41.441074      30.313023      16.846073      21.712521      17.101662
     145.456879     150.961029      37.278858      37.385002      39.106998      28.411749      25.827948      26.039490      35.325382      35.041809      32.861069      12.031952      26.866705      33.894012      34.940544      19.658197      12.262507      21.819357      13.673564
     116.746834     125.298164      27.863659      35.735893      28.166368      17.333784      16.422781      16.370550      29.682409      30.329599      22.138355       6.541530      18.333921      25.488876      25.807962       6.561949       6.664622      16.253138       8.070345
      92.611717      98.018768      14.546552      31.109354      19.981253      19.147911       3.959381      -1.489609      27.221350      27.522221      16.527914      -7.819098      14.603191      21.619616      22.056219      -2.010674       1.484942      13.934085       3.741750
      78.139893      84.154030      12.243300      26.614172      19.777515      26.537157       6.994242       5.695486      32.299210      31.933178      14.215335     -10.218445      21.055000      28.232655      27.401766      -2.923147      -2.196288      17.580591       2.543287
      71.919998      78.879997      20.330000      31.570000      26.680000      26.620001      13.020000      14.960000      40.500000      37.160000      10.760000      -5.350000      23.580000      33.619999      34.560001       0.200000      -7.480000      16.490000       0.040000
      64.800873      64.790436      21.844852      32.380035      27.492689      22.151396       7.739373      11.350503      41.684647      34.080086       1.035691      -4.478531      19.443872      32.892372      35.903400       3.817911     -11.226592      13.642001      -0.205341
      47.858093      42.940033      16.449118      29.132212      22.944296      10.914156      -5.265499       9.941519      37.323017      29.410118      -4.664342      -8.487350      16.542917      29.613092      33.316864       8.770654      -5.996623      15.864099       5.340949
      30.411205      24.742273      14.964709      28.165373      13.752538       0.987471     -15.367767      14.084363      29.575771      20.993580      -7.965212      -4.325531      15.635220      24.227095      26.004379       8.257218      -4.800910      14.975865       5.247042
      14.024149       7.956833      12.623068      22.538830       2.680381      -1.074228     -10.348319       7.052805      22.002270      12.278309      -4.701284     -14.258551      13.636239      17.934116      18.688524       6.872630      -7.542831      13.310569       4.329719
      -3.061484     -10.166730       3.345541      11.863153      -5.922351      -7.639768     -10.513671      -0.498816      11.710190       2.816233       0.538749     -24.877529       6.854035       9.393092      11.081456       4.031343     -12.234749       6.111067      -0.770478
     -21.276764     -26.518892      -7.614709       3.373797     -13.810882     -10.927341     -19.432829      -4.314035       1.062706      -6.702369      -0.952445     -17.765100       2.552459       4.470788       4.724728      -0.288263     -18.465143       0.317901      -7.928996
     -34.614307     -34.801811     -10.706790      -3.649630     -14.015260     -12.175921     -19.091389      -2.560457      -0.135609      -8.319239      -0.525499     -23.225525       5.388074       7.306396       4.403435       0.325096     -16.992064       2.036404      -8.609936
     -36.703526     -35.813286     -10.071040      -6.413873      -9.497467     -13.574226     -15.885555      -0.086917       5.591749      -7.668655       0.302701     -23.214962       7.905297       9.405883       5.076097       4.222913      -8.292254       3.301015      -5.234668
     -41.356373     -42.671867     -11.602789      -3.155856     -11.162631     -16.083845     -14.810974     -11.652879       5.789791     -11.870963      -1.700971      -8.058981       2.118380       3.770335       0.887147       3.420414      -1.007849      -4.934728      -5.976169
     -49.833420     -48.201271     -14.349438      -3.673250     -15.744063     -18.842875     -12.164056     -19.316381       2.627275     -14.819087      -3.718322      -2.310366      -2.698750      -0.044542      -3.453587      -2.077064       2.087818      -8.920180      -9.456212
     -57.144470     -51.695843     -19.064611      -8.302231     -21.294647     -19.704720     -12.727061     -12.020993       0.423497     -16.906744     -10.704720      -4.157933      -6.017570      -0.928170      -7.385952     -11.383914      -3.937611     -12.007776     -18.434669
     -63.963795     -55.815872     -24.547247     -14.653400     -26.076448     -22.179512     -13.110925      -8.489817      -0.338055     -18.121174     -19.571817      -9.181953      -8.075578      -0.456851     -10.564682     -20.038816     -13.148867     -14.931093     -23.523695
     -67.770073     -60.385727     -25.955919     -20.983845     -31.536993     -25.496326     -16.827293      -5.815028      -3.190127     -18.819048     -26.881599     -14.634076      -7.049431      -1.070704     -13.699733     -25.605312     -19.532515     -16.614599     -24.398378
     -70.602348     -67.866570     -25.030540     -24.048176     -34.681496     -29.423473     -21.082979      -4.416856      -4.268661     -16.771420     -32.027832     -11.599481      -7.104230      -0.551809      -9.574354     -22.848589     -20.604372     -20.683064     -21.375225
     -71.965981     -72.358299     -25.911274     -23.978403     -36.271938     -36.248100     -22.511911     -11.018291      -5.996434     -17.047991     -41.404465      -9.752667     -12.673062      -2.248483      -4.300130     -17.136398     -19.044844     -25.960680     -15.966671
     -77.382828     -79.257286     -29.980305     -27.566788     -40.191338     -43.005157     -28.341469     -16.346085      -7.195554     -16.044029     -47.794064     -22.411362     -13.520090      -0.316525       2.970633      -7.979377     -13.319550     -20.876572      -6.723509
     -83.724426     -85.120056     -31.789566     -29.203278     -42.178402     -45.451710     -35.207806     -19.295504      -8.610606     -11.418659     -43.375114     -27.119326     -10.146070       2.171526      10.379471       1.809155      -5.622844     -10.239126       3.361042
     -82.366356     -85.307114     -32.505852     -30.596601     -43.309250     -45.182537     -38.183891     -21.034218     -16.423645     -11.591581     -38.384941     -26.202190      -4.469687       5.365364      11.953713       4.452018      -1.601195       4.169904      13.597779
     -81.724861     -82.702278     -35.115276     -36.613392     -46.322529     -42.040192     -37.681408     -15.026207     -25.216188     -16.174795     -32.689625     -22.337040      -0.167583      10.249591      14.059024       7.241960       0.280305      14.716937      24.105074
     -83.684265     -78.588531     -35.823425     -40.307228     -48.889328     -37.596947     -35.568130     -11.153241     -24.401407     -15.458222     -23.241009     -14.057205       1.228607      13.363629      17.901501      13.984736       3.841754      11.310333      28.580307
     -79.685638     -74.192429     -30.339041     -30.795437     -43.362442     -31.618254     -30.856281     -12.365250     -13.230033      -2.811650      -8.309717     -17.940659       2.128651      16.508467      24.992096      23.065062       9.009646       6.733440      30.110346
     -71.069412     -68.082649     -23.075874     -15.146591     -28.630806     -13.936440     -23.864613     -12.822575      -0.288548      13.689367       6.564734     -16.394674       4.554858      20.882071      31.075527      29.530914      11.239394       6.448500      29.861534
     -62.578018     -62.396278     -15.814240      -4.416220     -12.210218       9.290975     -14.217899      -6.403016      10.757860      25.336777      18.799282     -13.297285      11.281604      26.242113      32.027412      30.786654      10.270949       9.481184      24.876062
     -55.923096     -59.125137      -9.868542       5.915066      -0.736663      19.912119      -6.502827       7.177470      19.570923      33.889179      25.461218     -11.775189      20.158316      30.289392      33.309879      29.453159       9.222351      11.855119      19.591192
     -54.322445     -55.871883      -7.547044       8.320298       4.107095      19.941818      -7.139085       8.461845      22.903122      37.904255      26.131147      -7.417699      25.214685      32.142826      33.680355      29.572762      10.259545      16.528727      19.530725
     -57.459354     -54.386421      -6.713989       5.205337       4.495800      15.739077      -8.209753      13.382442      21.357941      36.447083      21.878929       0.535936      25.137735      29.453001      29.781315      28.799526      14.211724      21.309341      17.503315
     -64.159737     -59.270603     -12.629255       3.252043      -0.264072       6.073028     -11.074666      11.256914      14.408550      27.047354      12.239013       7.101893      16.014797      17.875854      20.274267      25.746037      17.877806      14.205317      13.225169
     -68.722855     -66.134560     -16.352726      -0.413405      -6.312911      -1.700646     -10.466442       1.756439       5.883992      12.350183       4.318442      -2.675147       5.247612       5.661705       9.309004      22.806581      17.227505       2.647714      10.832068
     -66.789604     -69.034019     -12.038420      -6.944434     -12.109613      -7.086380      -5.632806     -11.165688      -0.151288      -0.278087      -0.639690      -8.075130       3.771850       2.394000       4.779602      22.044096      15.762781       6.085042      12.248164
     -69.012711     -71.107124     -11.875113     -10.659973     -16.232107     -12.555524      -2.626586      -8.430991      -6.262527      -6.889319      -3.025054      -9.069313       3.514513      -1.478487      -1.166187      17.401949      12.639053       6.610838       6.802345
     -73.294548     -72.615982     -14.660356      -7.781729     -14.622307     -13.209788      -2.806314       9.748756     -11.215266      -9.350245      -2.830151      -3.375551       6.083028      -3.137411      -5.827505       9.418199       6.391730       2.973307      -1.831777
     -75.553421     -75.372292     -16.087980     -12.561197     -15.175936     -14.308647      -3.699325       9.514508     -14.975563     -14.026942      -4.454537       5.627202       8.753401       0.027359      -4.922655       5.424120       4.189792       0.332586      -4.295457
     -74.177841     -71.003166     -15.647484     -18.117012     -13.459347     -13.280286      -1.294125      11.786570      -7.932314     -10.499310      -0.879841      16.965321      10.096915       6.251234       1.920678       7.501297       8.825907      -0.065040      -0.505491
     -69.640221     -66.069221     -14.604618     -13.878366      -9.528602     -10.473722       2.580153      13.437046       1.064771      -3.038217      -0.345374      27.203850       4.149179       5.188117       4.822540       4.174776       7.424085      -7.441389      -4.124602
     -62.609077     -63.576717      -8.009558      -1.820031      -3.454391      -2.842660       8.252747      -0.590889       8.540545       7.285388       4.628260      15.903301       0.014803       6.163304       8.817286       4.749100       4.915524      -7.786211      -2.785889
     -57.309990     -57.394978      -3.897853       1.676717      -0.310546       2.856098      12.648382      -6.360333      14.756980      14.718807      12.304222      -5.873259       2.907542      11.886782      13.318213       8.266957       1.972029       1.031306       3.160919
     -54.708149     -54.756603      -4.549442      -0.263666      -3.595288       2.240204       9.622379       4.622700      15.753556      15.826398      11.241868       0.548324       3.419041      12.003081      11.130643       6.001466       1.032159       2.448630       4.077783
     -60.670033     -63.319794     -11.084212      -2.647635     -12.425876      -4.374667      -2.141917       9.353512      10.226300       8.405644       1.628431      14.107756      -1.847230       4.027713      -0.007876      -1.879966      -0.051152      -4.706159       0.031225
     -63.073193     -69.422150     -15.923685      -4.942348     -17.976645     -11.328716      -7.205300       2.186002       7.278997       1.514890      -6.755762      16.336224      -4.693590      -3.221066      -8.938930      -4.047671       3.295866      -9.342065      -0.967881
     -61.804531     -67.865227     -10.978449      -2.395692     -16.921148     -15.962850       0.526853       1.608707       8.664169       1.152583      -7.318574      17.040588      -2.731503      -3.811970      -9.596857       4.867908      11.714004      -6.525490       3.933938
     -63.644005     -65.483231      -7.124938      -2.493814     -15.806590     -14.687396       2.932489      -3.835082       7.000700       0.554390      -2.898619      10.630933      -2.914133      -3.896538      -8.413679      11.013884       9.991836      -4.640563       7.101359
     -59.998722     -61.737755      -4.326283       1.798873      -8.576006      -5.972504       4.271008      -0.173975       6.191925       5.087687       9.069604      -4.549189       1.259144       0.771842      -2.021443      14.858429       6.133214       0.388805      10.856330
     -53.953762     -55.812126       0.204633       4.635217      -3.062974       0.716368       6.718307      12.286561       3.730735       6.680982      13.124044      -7.292691       4.473690       3.110996       1.839479      13.035888       3.029668       1.520042      10.067009
     -55.044022     -55.043766      -2.290140      -3.915320     -10.164346      -8.509052      -2.273951      13.847438      -2.969760      -0.654653       2.106918       6.547369       6.918824       4.586808       1.562485       4.676482      -1.661314       3.487370       6.676672
     -57.552227     -56.303646      -4.780766      -9.030611     -16.213148     -17.487156      -6.795465      14.281607      -2.169828      -2.976500      -4.284423      11.009115      14.811110      12.826080       3.648866      -2.957664      -4.693517      12.017365       6.939279
     -58.566994     -57.807850      -6.216660      -7.677226     -15.564969     -14.261108      -5.041048       0.639660       3.160047       0.213822      -3.081714       2.464988      14.699494      15.760199       3.654565     -10.483050      -5.406771      12.259408       3.085602
     -59.119812     -59.502747      -7.197772      -3.448998     -11.072931      -7.490684      -3.196009      -4.978406       7.011431       6.690286      -1.197844      -7.346602       9.160160      14.487799       4.414202     -13.790749      -5.669756       9.606076      -1.736481
     -60.649570     -60.856049      -4.772053       1.768644      -6.675606      -7.181160      -2.601621       4.829209       9.474270      11.468721      -0.951696      -1.147610       9.190974      15.202618       6.628932     -10.730055      -8.263111      10.962608       0.405852
     -62.274044     -62.827782      -2.016410       3.215177      -6.825787     -10.720962      -4.595739      14.158186      10.574239      11.468735      -0.618411      -4.135324      12.461750      16.809471       8.249304      -4.257493      -9.537109      11.712621       5.309454
     -60.536293     -63.395027      -0.153992      -0.600720     -11.799563     -15.725290      -5.492624      17.298134       6.690163       3.812991      -4.993597      -8.603771      13.191609      12.346729       3.204069      -3.487076      -8.962109      12.616299       5.703236
     -61.131687     -66.276649      -4.467334     -13.362576     -22.102894     -25.456955     -12.251962       0.836449      -3.751191     -11.618192     -17.309523     -10.762919       7.962465       0.289790      -9.708046     -11.840024      -9.270589       5.817142       2.699561
     -61.488762     -70.448708     -11.368974     -20.847517     -29.362009     -31.470057     -18.255209      -4.200271     -13.236096     -22.352579     -24.449362      -7.103313       4.175085      -8.668725     -19.254889     -15.411018      -2.195291       0.377981       2.615076
     -56.891819     -69.681885     -12.528182     -22.759912     -31.973410     -35.545471     -17.111048       4.017109     -16.172642     -25.008778     -23.506660      -1.835800       2.651357     -12.384535     -24.683947     -15.231067       2.468981      -3.830735      -2.588930
     -52.031292     -64.836479      -9.148674     -20.036348     -28.566710     -30.477222     -14.815569      10.155872     -11.423311     -17.284273     -13.460129       0.342484       3.365413     -10.158316     -21.333853      -9.939159       3.970847      -7.617362      -9.265049
     -50.427719     -60.610081      -6.712388     -13.417723     -22.679171     -20.877106     -11.193748      -0.266387      -7.851462      -8.763493      -5.698259       0.597611       2.123798      -8.163090     -16.206053      -5.051672       1.047093      -8.059720     -11.876613
     -51.001945     -57.667183     -12.678067     -16.651770     -23.036333     -18.984678      -8.871409     -14.417808     -13.264490     -10.097286      -4.843014      -0.571030       2.270693      -9.789567     -16.591980      -5.432882      -6.553310      -4.308903     -12.808453
     -50.595184     -51.154350     -14.616023     -21.319576     -23.764973     -16.800642      -6.840018       0.744000     -15.866912     -12.877341       0.791605       4.191212       7.692563      -5.234679     -13.927060      -3.505984      -3.762297       2.984401      -8.707766
     -49.838116     -50.009537     -10.381739     -20.917042     -21.078228     -10.057124      -6.721588       7.376541     -11.601953     -15.177410       7.676225      -2.921072       7.394576      -1.781726     -13.776887      -6.769074       2.043640       0.811407      -8.646909
     -49.070763     -44.441868      -9.121687     -16.424339     -11.166522       2.097745       1.989100       1.675365      -5.189092     -11.602224      11.102029      -8.409644       2.370034      -3.470894     -18.972349     -16.073530       2.617654      -7.098307     -11.893975
     -46.179947     -35.045822      -6.489057     -11.034926       1.239005      13.733576       9.712359       0.099314      -0.707393      -4.689322       9.091505       2.089108       0.151520      -3.566839     -24.460163     -23.829311       0.827700     -11.741681     -17.160961
     -43.145340     -29.285217      -5.434621      -8.536266       4.295004      12.547284       9.630860      -2.049155      -1.707921      -3.125632       1.245656      10.400946       0.600566      -5.885125     -31.862789     -28.901119      -4.877856     -14.541955     -23.579601
     -40.266220     -28.384808      -4.653769     -11.446192      -2.872620       1.852708       6.530200       5.007562      -5.668437      -8.304447      -7.300245      13.085038      -0.773928      -9.565230     -40.015827     -32.187351      -9.494443     -16.899063     -26.128304
     -43.352619     -35.892967      -5.618245     -18.300404     -13.469204      -9.170329       1.360995      -0.657537     -10.987050     -18.514469     -14.853019      -0.758628      -8.038556     -17.014221     -48.152199     -37.008015     -11.465549     -21.174454     -26.617563
     -43.520000     -34.759998      -5.780000     -20.209999     -14.520000      -8.670000      -0.030000      -2.290000     -11.120000     -20.770000     -16.840000      -4.000000     -10.580000     -22.809999     -49.799999     -37.290001     -10.010000     -21.940001     -24.100000
     -41.384266     -30.141634      -6.669684     -19.286446     -10.231140      -5.899678      -1.353706      -2.299152     -10.479997     -18.023691     -18.450827       5.165184     -10.566607     -24.914366     -47.290031     -32.176178      -6.101794     -22.309235     -21.405420
     -39.462498     -31.814869      -6.523931     -15.837605      -6.192756      -5.834002      -2.317249     -10.469786     -13.142458     -16.906624     -19.473625       2.842522     -14.313220     -27.870554     -43.949764     -26.318745      -5.648086     -28.000914     -19.709251
     -38.421467     -34.973988      -5.176017     -11.028090      -4.364520      -7.918991      -5.011050      -6.079084     -14.799339     -17.477938     -20.497774       3.497828     -15.004480     -28.043978     -37.654369     -19.546757      -5.669845     -27.340683     -14.982216
     -38.314011     -40.058113      -6.365019      -6.435482      -4.725857     -13.205301      -7.020759      -4.099861     -15.682433     -17.520414     -22.566339       3.161928     -12.969258     -28.673174     -32.193378     -13.920574      -4.026341     -22.896574      -9.790469
     -38.401295     -46.408123     -12.151810      -7.795761      -7.787954     -17.315578      -7.953938      -2.934963     -20.035332     -18.642010     -25.981535      -2.458642     -12.701435     -32.239697     -30.016384     -12.637405      -3.946210     -22.421223      -8.866750
     -39.336407     -47.991795     -14.798096     -16.940060     -15.016488     -19.838762     -12.961317      -0.027248     -21.877928     -23.732630     -25.523605      -5.330297      -8.470893     -28.827709     -26.433462     -14.033079      -7.370970     -17.580873     -10.152187
     -38.393566     -43.171452     -10.518325     -19.904934     -20.032209     -19.363945     -13.150026      -2.730700     -15.513143     -21.119236     -15.711129       2.486946       0.452002     -17.439295     -17.030996     -12.269804      -8.798288      -6.272342     -10.230431
     -35.703621     -34.907944      -3.278606     -13.483742     -19.169497     -12.146712      -8.940010       4.479087      -5.061208      -9.458580      -3.814353      13.026867       3.643538      -9.083900      -9.122540      -9.775102     -10.406884      -3.352871     -10.947018
     -37.502296     -37.639736      -0.766030      -8.063461     -17.414259      -7.494256      -8.444430       8.704167       2.834162      -1.416420       0.362450       8.179471       1.947950      -4.541941      -7.530869      -9.472237     -14.915089      -5.035635     -10.249532
     -36.966579     -37.917343      -0.646605      -1.287548     -13.005912      -3.918602      -5.769131       7.405715       5.048441       3.103562      -0.068481      -0.184312      -1.456612      -2.427617      -8.339462     -10.694457     -16.726570     -10.564441     -11.893776
     -31.088800     -32.613773       0.273400       5.700224      -7.235353       2.059020      -1.347638       4.310975       5.147927       7.821712       3.179134       3.899334      -1.507455       1.700279      -3.936137      -8.405967      -9.031398      -9.672796      -9.285113
     -24.181490     -25.568098       3.186855       4.543666      -6.095297       8.008780       5.000280       1.426650       1.638061       8.241285       7.013174       5.863845      -2.500162       0.215280      -1.839417      -7.775961      -3.340147      -8.300322      -7.099985
     -18.517105     -19.959381       4.702672       1.043871     -10.032364       6.702225       9.152429      -1.567390      -2.323868       3.410565       3.562479       2.826590      -8.006684      -5.875781      -6.113168     -11.673985      -3.769298     -10.588412      -9.461058
     -18.944494     -18.404493       1.401404      -0.682345     -13.295023       0.553929       9.053937      -3.186226      -3.290903      -0.070145      -2.921942       5.071613      -7.828487      -5.939830     -10.144389     -13.822064      -4.892332      -3.302938      -8.850396
     -18.718475     -17.257542      -1.146813      -0.483779     -11.537286      -2.845319       6.680444      -7.880625      -2.762724       0.110658      -3.562726       7.541560      -4.446236      -2.075375      -9.349521      -8.762634      -2.300531       3.833223      -4.775508
     -20.917519     -17.647310      -1.490105       1.102354      -7.444999      -0.270263       7.737811     -11.417824      -2.009349       1.919023       1.777378       4.718899      -1.194233       3.466089      -5.538500      -0.627148       1.436192       6.837710      -2.090175
     -16.770870      -9.225026       1.163206       4.722595       3.612463      13.092095      17.794331      -2.691306      -1.828577      10.171893      13.535747      11.708012       3.896343       5.284079      -1.383228       6.840216       5.502306       9.241500      -1.821054
      -9.300773      -1.038469       2.659968       5.813771      12.713754      20.851732      20.632113       2.489003      -5.991146      17.078707      24.621357      14.497022       2.478123      -0.936216       3.845401      14.045355       9.585551       6.075656      -1.135385
     -10.258001      -3.058502      -0.139553       4.961428      13.320401      20.132805      19.245913       1.115558     -16.284706      14.296339      27.421804      15.131289      -2.350483      -9.806381       6.679917      16.765684       9.270463       4.658751       1.192710
     -12.557939      -4.538998      -3.101083      -2.181173       8.682673      13.877349      19.203079      -2.164488     -25.432575       5.551152      19.418747      11.543242      -6.635996     -15.004822       4.145625      10.390609       4.353155       3.416001       3.781868
     -19.852041      -8.342286      -7.167226     -12.677136      -0.155100       1.166340      10.655163     -13.374761     -25.096413      -1.702370       8.937152       1.463010     -11.160702     -16.669926      -0.026047       1.066958      -0.447674      -3.649336       2.387621
     -25.040325     -14.469977      -8.342719     -14.355514      -2.876075      -3.950439       2.220455      -8.123599     -15.112429       1.579971       4.807504       1.276575      -8.974090     -11.561217       1.688955      -0.695172       0.586198      -8.349810       4.043233
     -22.427345     -22.815628      -6.784902     -13.254974      -2.051575      -6.446488      -2.731360       1.709411      -6.095748       4.615127       0.494313       2.348311      -5.254756      -3.899232       4.323367      -0.013152       4.197159      -8.960973       9.589688
     -17.251953     -23.141356      -2.173904      -6.714612       2.600887      -4.114722      -2.787677       7.305315       1.685772       9.383905       0.826009       8.180766       3.288465       8.004301       9.960221       2.553995       6.779285       4.346307      14.662580
     -12.669436     -17.598248       1.908680      -0.017620       7.021333       2.989128       2.719751       7.597804       6.598815      15.609635       2.664765      14.974116      10.831763      18.290634      14.475506       4.427582       6.145647      15.237217      14.058253
     -12.216785     -17.787453       0.357698      -3.243904       3.070495       2.660531       3.213290      -0.714241       6.514952      13.817174       1.091295       9.473957      12.060515      20.024851      11.634669       5.057326       5.114018      14.648273       9.071580
     -15.242308     -19.670958      -1.238074      -8.028287      -4.877513      -3.180487       0.123554      -2.648307       3.282054       5.810116      -5.063547      -4.249289      12.039662      13.986716       3.422466       3.962309       0.988011       9.453042      -0.183360
     -18.145542     -21.615019       0.442348     -11.157084     -12.403037     -13.272427      -6.161186       7.742480      -2.417201      -4.012379     -16.583511     -16.112768      11.470223       4.400385      -5.010369       1.419763      -1.708903       4.350462      -4.529505
     -19.465227     -20.794394       2.490354     -15.505442     -16.375202     -19.784254     -12.947778      18.058363      -5.132014     -10.915195     -21.141344     -18.182638       9.999582      -0.917629      -9.399618       1.373592      -1.955276       1.309592      -2.658576
     -18.695578     -19.478649       2.200444     -16.814129     -16.752111     -17.939774     -11.593805      11.351571     -10.604396     -14.613997     -16.695284     -13.781764       2.121992      -8.819805     -15.611355       0.033538      -3.966861      -8.142981      -5.306345
     -17.371105     -20.310120      -0.641815     -13.902381     -15.484218     -14.513511      -8.379884      -9.435019     -20.755453     -15.557408      -7.583216      -6.903012      -5.154518     -15.546294     -18.830866       3.158653      -0.378120     -12.314397      -5.664602
     -13.359745     -16.213783      -4.244818      -8.511222      -9.532467      -5.261051      -2.525621     -13.983187     -27.021936     -11.404239       2.439481       6.134727      -5.701279     -18.302715     -15.035545       9.522573       4.966959     -10.725729      -3.217432
      -8.675364      -7.717080      -6.629939      -2.739758      -1.476111       5.930981       6.347612      -6.879526     -27.221903      -7.485050       8.070405       1.371101      -6.464737     -18.157742     -11.297822       9.182940       2.802466     -11.913510      -1.273279
      -2.278200       3.130680      -4.750794      -2.217223       1.083939       9.199351       7.984619      -4.165366     -25.521839      -9.825788       5.955503      -9.213207      -6.684182     -13.753474      -9.530538       3.424469      -1.698900      -8.891532      -1.756020
